
Integration time [ms]: 4000,000
Averaging Nr. [scans]: 10
Smoothing Nr. [pixels]: 0
Data measured with spectrometer [name]: 1803151U1
Wave   ;Sample   ;Dark     ;Reference;Transmittance
[nm]   ;[counts] ;[counts] ;[counts] ;[%]

 195,95; 2372,843; 2450,809; 2266,420; 0,00000
 196,55; 2096,334; 2155,473; 2021,717; 0,00000
 197,15; 1768,430; 1825,653; 1694,116; 0,00000
 197,76; 3136,359; 3364,879; 2963,478; 0,00000
 198,36; 1844,569; 1886,433; 1739,434; 0,00000
 198,96; 2846,315; 3138,853; 2722,957; 0,00000
 199,56; 2215,542; 2475,112; 2108,920; 0,00000
 200,16; 1889,975; 1934,011; 1810,087; 0,00000
 200,76; 1483,020; 1629,734; 1417,109; 0,00000
 201,36; 3350,345; 3644,140; 3190,870; 0,00000
 201,96; 1568,895; 1650,171; 1482,645; 0,00000
 202,56; 2210,329; 2318,435; 2037,862; 0,00000
 203,16; 2353,221; 2564,795; 2277,659; 0,00000
 203,76; 1852,394; 1954,839; 1734,196; 0,00000
 204,36; 1478,753; 1733,936; 1501,775; 0,00000
 204,96; 2232,358; 2295,244; 2094,529; 0,00000
 205,56; 1911,216; 2137,645; 1761,608; 0,00000
 206,16; 1536,568; 1616,372; 1460,884; 0,00000
 206,76; 1903,627; 2009,469; 1761,464; 0,00000
 207,36; 2726,271; 2789,130; 2526,935; 0,00000
 207,96; 2666,455; 2751,425; 2619,927; 0,00000
 208,56; 2272,531; 2467,923; 2153,014; 0,00000
 209,16; 1873,493; 1894,205; 1714,246; 0,00000
 209,76; 1451,736; 1638,169; 1378,217; 0,00000
 210,36; 1656,579; 1838,196; 1561,739; 0,00000
 210,96; 1978,196; 2184,963; 1804,297; 0,00000
 211,56; 1938,920; 2134,099; 1911,159; 0,00000
 212,16; 4264,335; 4485,535; 4113,268; 0,00000
 212,76; 1761,716; 1873,645; 1666,608; 0,00000
 213,36; 2523,113; 2567,094; 2363,906; 0,00000
 213,96; 2223,720; 2310,099; 2152,159; 0,00000
 214,56; 1959,499; 2149,512; 1929,000; 0,00000
 215,16; 1896,727; 2038,469; 1821,464; 0,00000
 215,76; 3795,594; 3965,839; 3702,196; 0,00000
 216,36; 1444,608; 1475,213; 1360,753; 0,00000
 216,96; 3166,835; 3374,743; 3017,616; 0,00000
 217,56; 1758,102; 1758,271; 1738,051; 0,00000
 218,16; 2271,090; 2388,655; 2176,543; 0,00000
 218,75; 1506,992; 1641,143; 1398,695; 0,00000
 219,35; 1669,110; 1853,337; 1526,855; 0,00000
 219,95; 2307,857; 2485,548; 2055,029; 0,00000
 220,55; 2034,754; 2095,363; 1947,377; 0,00000
 221,15; 2900,162; 3060,429; 2862,181; 0,00000
 221,75; 1828,338; 1926,658; 1740,369; 0,00000
 222,35; 2189,361; 2344,002; 2164,580; 0,00000
 222,95; 3161,860; 3234,306; 3000,080; 0,00000
 223,55; 2956,827; 3109,103; 2720,413; 0,00000
 224,15; 2410,700; 2604,574; 2382,550; 0,00000
 224,75; 2160,537; 2379,596; 2114,819; 0,00000
 225,35; 1879,285; 2104,504; 1830,492; 0,00000
 225,95; 2630,251; 2835,240; 2516,275; 0,00000
 226,55; 1790,196; 1858,328; 1649,348; 0,00000
 227,15; 1797,537; 1872,231; 1750,768; 0,00000
 227,75; 2955,160; 3047,306; 2909,080; 0,00000
 228,34; 1936,345; 2090,662; 1919,623; 0,00000
 228,94; 2423,036; 2687,169; 2502,217; 0,00000
 229,54; 1745,536; 1972,804; 1691,167; 0,00000
 230,14; 2158,648; 2290,055; 2070,623; 0,00000
 230,74; 1710,495; 1934,901; 1626,746; 0,00000
 231,34; 1850,974; 1948,949; 1770,536; 0,00000
 231,94; 2234,886; 2452,835; 2053,942; 0,00000
 232,54; 1712,718; 1919,976; 1659,058; 0,00000
 233,14; 2245,773; 2430,888; 2151,985; 0,00000
 233,74; 1786,249; 1892,751; 1647,123; 0,00000
 234,33; 1782,448; 1926,055; 1710,623; 0,00000
 234,93; 1771,341; 1868,477; 1703,971; 0,00000
 235,53; 1803,514; 2020,156; 1720,456; 0,00000
 236,13; 2158,168; 2281,007; 1986,833; 0,00000
 236,73; 2161,919; 2435,672; 1994,558; 0,00000
 237,33; 2054,610; 2203,702; 2048,906; 0,00000
 237,93; 3230,456; 3450,121; 3078,427; 0,00000
 238,53; 1838,497; 1998,389; 1744,898; 0,00000
 239,12; 3567,517; 3828,341; 3406,108; 0,00000
 239,72; 2927,802; 3117,905; 2838,000; 0,00000
 240,32; 1265,957; 1490,391; 1186,326; 0,00000
 240,92; 1333,478; 1423,134; 1240,188; 0,00000
 241,52; 1710,468; 1843,007; 1642,833; 0,00000
 242,12; 2575,345; 2652,297; 2457,572; 0,00000
 242,72; 1704,986; 1765,200; 1655,993; 0,00000
 243,31; 1725,484; 1895,077; 1607,891; 0,00000
 243,91; 2133,192; 2311,143; 1981,695; 0,00000
 244,51; 1387,117; 1510,914; 1389,507; 0,00000
 245,11; 4045,955; 4236,060; 3824,877; 0,00000
 245,71; 2626,638; 2968,292; 2394,319; 0,00000
 246,31; 3117,096; 3308,963; 2988,297; 0,00000
 246,90; 3442,017; 3674,914; 3178,507; 0,00000
 247,50; 1641,095; 1868,901; 1572,746; 0,00000
 248,10; 2041,823; 2191,857; 1987,210; 0,00000
 248,70; 1215,504; 1414,394; 1090,152; 0,00000
 249,30; 2042,170; 2135,703; 1867,333; 0,00000
 249,90; 1620,395; 1802,536; 1421,696; 0,00000
 250,49; 1843,734; 2119,681; 1836,065; 0,00000
 251,09; 1699,841; 1940,051; 1767,369; 0,00000
 251,69; 2217,333; 2313,046; 2121,116; 0,00000
 252,29; 2149,783; 2316,015; 2056,340; 0,00000
 252,89; 1991,908; 2214,483; 1983,652; 0,00000
 253,48; 1917,417; 2109,914; 1797,507; 0,00000
 254,08; 1248,436; 1368,169; 1241,217; 0,00000
 254,68; 1183,373; 1305,888; 1189,985; 0,00000
 255,28; 1949,250; 2163,813; 1929,674; 0,00000
 255,88; 1954,136; 2197,169; 1959,217; 0,00000
 256,47; 1272,556; 1415,121; 1267,427; 0,00000
 257,07; 1934,934; 2012,108; 1834,667; 0,00000
 257,67; 2408,345; 2521,662; 2221,623; 0,00000
 258,27; 2041,351; 2251,875; 1964,224; 0,00000
 258,86; 2491,533; 2728,411; 2401,167; 0,00000
 259,46; 1693,108; 1788,483; 1575,652; 0,00000
 260,06; 1859,626; 1959,677; 1672,812; 0,00000
 260,66; 1867,137; 2085,500; 1745,667; 0,00000
 261,26; 3050,510; 3229,971; 2946,804; 0,00000
 261,85; 1225,754; 1317,633; 1088,275; 0,00000
 262,45; 1938,047; 2017,993; 1823,072; 0,00000
 263,05; 1864,961; 1952,002; 1770,580; 0,00000
 263,65; 1162,616; 1344,487; 1126,906; 0,00000
 264,24; 2723,455; 2755,425; 2553,927; 0,00000
 264,84; 2216,682; 2360,954; 2048,790; 0,00000
 265,44; 2437,494; 2522,839; 2359,196; 0,00000
 266,04; 1549,408; 1819,483; 1582,652; 0,00000
 266,63; 1689,272; 1752,191; 1768,485;-386,15373
 267,23; 1108,823; 1286,492; 1036,159; 0,00000
 267,83; 1907,114; 1934,156; 1829,456; 0,00000
 268,42; 1503,690; 1653,020; 1456,594; 0,00000
 269,02; 2824,872; 3109,461; 2708,384; 0,00000
 269,62; 1919,006; 2074,090; 1866,652; 0,00000
 270,22; 1045,972; 1262,826;  903,435; 0,00000
 270,81; 1893,601; 2007,209; 1823,500; 0,00000
 271,41; 1845,254; 2063,267; 1728,225; 0,00000
 272,01; 1954,332; 2070,985; 1903,565; 0,00000
 272,61; 1857,086; 2087,200; 1738,993; 0,00000
 273,20; 2369,763; 2558,333; 2259,029; 0,00000
 273,80; 1487,556; 1712,756; 1364,377; 0,00000
 274,40; 1327,413; 1431,729; 1204,855; 0,00000
 274,99; 1824,387; 2092,470; 1820,891; 0,00000
 275,59; 2156,378; 2390,769; 2039,138; 0,00000
 276,19; 2539,567; 2680,580; 2423,232; 0,00000
 276,78; 1941,065; 1944,187; 1887,232; 0,00000
 277,38; 1491,915; 1662,218; 1324,007; 0,00000
 277,98; 1658,996; 1789,597; 1541,246; 0,00000
 278,57; 1487,086; 1613,200; 1452,993; 0,00000
 279,17; 1799,228; 1920,165; 1801,964; 0,00000
 279,77; 4004,699; 4306,147; 3707,949; 0,00000
 280,37; 1741,762; 1806,272; 1650,478; 0,00000
 280,96; 1409,854; 1596,633; 1320,275; 0,00000
 281,56; 1132,043; 1301,809; 1140,420; 0,00000
 282,16; 1371,082; 1593,589; 1287,739; 0,00000
 282,75; 1258,957; 1351,548; 1184,029; 0,00000
 283,35; 1636,343; 1724,443; 1619,370; 0,00000
 283,95; 1686,173; 1837,523; 1629,935; 0,00000
 284,54; 1533,466; 1732,518; 1370,681; 0,00000
 285,14; 1793,588; 2002,531; 1745,442; 0,00000
 285,73; 2089,908; 2242,848; 1944,703; 0,00000
 286,33; 1402,640; 1551,624; 1340,768; 0,00000
 286,93; 1522,888; 1624,531; 1412,442; 0,00000
 287,52; 1931,492; 2087,351; 1777,044; 0,00000
 288,12; 2199,490; 2368,289; 2018,493; 0,00000
 288,72; 2326,789; 2540,228; 2154,942; 0,00000
 289,31; 2196,102; 2305,540; 2087,949; 0,00000
 289,91; 2817,956; 2981,756; 2728,377; 0,00000
 290,51; 1769,095; 1677,901; 1664,746; 0,00000
 291,10; 2146,567; 2291,945; 2067,282; 0,00000
 291,70; 1377,601; 1561,113; 1353,348; 0,00000
 292,29; 1987,169; 2157,068; 1842,384; 0,00000
 292,89; 1596,073; 1690,888; 1419,985; 0,00000
 293,49; 2024,182; 2264,589; 1816,739; 0,00000
 294,08; 1057,653; 1265,571;  959,725; 0,00000
 294,68; 1381,499; 1502,721; 1285,348; 0,00000
 295,28; 1752,078; 1825,769; 1645,138; 0,00000
 295,87; 1637,126; 1701,042; 1462,862; 0,00000
 296,47; 1721,200; 1923,782; 1804,898; 0,00000
 297,06; 2010,871; 2198,765; 1905,884; 0,00000
 297,66; 1064,286; 1120,408; 1021,341; 0,00000
 298,26;  848,159; 1080,514;  818,428; 0,00000
 298,85; 1933,907; 2209,787; 1861,152; 0,00000
 299,45; 1595,984; 1706,077; 1485,891; 0,00000
 300,04; 1589,896; 1700,963; 1436,297; 0,00000
 300,64; 1638,654; 1752,363; 1539,377; 0,00000
 301,23; 1986,743; 2053,443; 1788,370; 0,00000
 301,83; 1747,574; 1890,949; 1598,536; 0,00000
 302,43; 1815,781; 2008,527; 1698,188; 0,00000
 303,02; 1390,404; 1560,394; 1403,152; 0,00000
 303,62; 1555,789; 1619,958; 1414,043; 0,00000
 304,21; 2164,193; 2301,570; 2082,297; 0,00000
 304,81; 2298,041; 2363,051; 2166,369; 0,00000
 305,40; 1677,446; 1808,359; 1650,123; 0,00000
 306,00; 1620,170; 1819,703; 1572,333; 0,00000
 306,59; 1869,256; 1944,121; 1776,427; 0,00000
 307,19; 1197,614; 1283,791; 1167,406; 0,00000
 307,79; 1614,925; 1758,980; 1645,311; 0,00000
 308,38; 1746,096; 1837,120; 1564,000; 0,00000
 308,98; 1198,648; 1304,055; 1136,623; 0,00000
 309,57; 1192,657; 1271,391; 1034,326; 0,00000
 310,17; 1947,586; 2107,521; 1757,537; 0,00000
 310,76; 2206,056; 2428,076; 1981,921; 0,00000
 311,36; 1584,267; 1768,788; 1496,580; 0,00000
 311,95; 1276,377; 1378,073; 1107,638; 0,00000
 312,55; 2946,189; 3226,863; 2809,892; 0,00000
 313,14;  978,871;  938,399;  898,833; 0,00000
 313,74; 1135,027; 1252,738; 1111,362; 0,00000
 314,33; 1917,013; 2063,094; 1877,906; 0,00000
 314,93; 2073,031; 2188,923; 1902,014; 0,00000
 315,52; 1903,306; 2025,725; 1894,601; 0,00000
 316,12; 1615,354; 1656,998; 1449,326; 0,00000
 316,71; 5066,375; 5239,584; 4700,485; 0,00000
 317,31;  782,255;  942,694;  751,826; 0,00000
 317,90; 1297,601; 1427,479; 1180,399; 0,00000
 318,50; 1163,828; 1262,738; 1025,362; 0,00000
 319,09;  971,933; 1098,046;  948,116; 0,00000
 319,69; 1632,605; 1815,663; 1520,051; 0,00000
 320,28; 1620,344; 1666,870; 1623,971; 0,00000
 320,88; 1448,279; 1544,196; 1349,739; 0,00000
 321,47; 1090,627; 1254,738; 1084,362; 0,00000
 322,07; 1222,247; 1298,628; 1158,022; 0,00000
 322,66; 1239,166; 1255,883; 1191,732; 0,00000
 323,26; 1236,617; 1225,341; 1234,108;128,61757
 323,85; 1573,655; 1723,694; 1372,826; 0,00000
 324,45;  789,943;  844,809;  755,420; 0,00000
 325,04; 1152,095; 1270,901; 1028,746; 0,00000
 325,64; 1558,604; 1663,602; 1373,500; 0,00000
 326,23; 1268,671; 1505,765; 1212,884; 0,00000
 326,83; 1865,967; 1999,945; 1705,282; 0,00000
 327,42; 1516,859; 1619,514; 1366,427; 0,00000
 328,01; 1472,086; 1636,835; 1476,942; 0,00000
 328,61;  723,566;  731,518;  585,681; 0,00000
 329,20; 1962,125; 2068,980; 1819,311; 0,00000
 329,80;  765,411;  938,398;  754,406; 0,00000
 330,39; 1402,671; 1549,765; 1292,884; 0,00000
 330,99; 1048,807; 1189,787;  978,152; 0,00000
 331,58; 1124,729; 1231,800; 1061,913; 0,00000
 332,17; 1817,566; 1989,883; 1706,732; 0,00000
 332,77; 2424,583; 2623,015; 2197,340; 0,00000
 333,36; 1334,799; 1551,147; 1218,949; 0,00000
 333,96;  713,848;  796,690;  652,572; 0,00000
 334,55;  961,308; 1092,213;  905,753; 0,00000
 335,15; 1027,544; 1146,870;  993,971; 0,00000
 335,74; 1227,090; 1335,020; 1166,594; 0,00000
 336,33; 1089,529; 1220,800;  992,913; 0,00000
 336,93; 1361,845; 1423,932; 1232,522; 0,00000
 337,52; 1375,643; 1653,809; 1366,420; 0,00000
 338,12; 1391,967; 1596,945; 1402,282; 0,00000
 338,71; 1352,915; 1446,853; 1166,956; 0,00000
 339,30; 1998,965; 2095,822; 1923,181; 0,00000
 339,90; 1200,753; 1379,206; 1137,674; 0,00000
 340,49; 1344,138; 1502,927; 1247,268; 0,00000
 341,08; 1361,202; 1547,540; 1338,949; 0,00000
 341,68; 1268,629; 1474,800; 1108,913; 0,00000
 342,27; 1814,566; 2069,883; 1740,732; 0,00000
 342,87; 1512,175; 1603,584; 1460,485; 0,00000
 343,46; 1954,686; 2121,200; 1797,993; 0,00000
 344,05; 1601,721; 1779,795; 1571,659; 0,00000
 344,65; 1890,086; 2005,200; 1818,993; 0,00000
 345,24; 1764,534; 1951,108; 1604,667; 0,00000
 345,83; 2038,444; 2162,235; 1933,021; 0,00000
 346,43; 1016,373; 1111,888;  919,985; 0,00000
 347,02;  842,258;  944,244;  736,529; 0,00000
 347,61;  982,592; 1147,351;  811,044; 0,00000
 348,21; 2038,090; 2163,020; 1951,594; 0,00000
 348,80;  702,115;  808,853;  709,956; 0,00000
 349,40; 1003,795; 1161,901;  950,746; 0,00000
 349,99; 1076,528; 1188,165; 1045,964; 0,00000
 350,58; 1406,684; 1633,347; 1247,790; 0,00000
 351,18; 1326,247; 1390,993; 1252,072; 0,00000
 351,77; 1045,849; 1139,751;  980,123; 0,00000
 352,36;  965,836; 1017,169;  939,217; 0,00000
 352,96;  624,697;  674,024;  540,848; 0,00000
 353,55; 1695,607; 1870,421; 1636,101; 0,00000
 354,14; 1226,265; 1374,822; 1203,181; 0,00000
 354,73;  627,332;  683,985;  493,565; 0,00000
 355,33; 1012,884; 1030,077;  945,891; 0,00000
 355,92; 1310,104; 1366,602; 1153,500; 0,00000
 356,51;  692,493;  772,413;  665,594; 0,00000
 357,11;  915,513;  988,364;  804,804; 0,00000
 357,70; 1389,048; 1512,959; 1234,471; 0,00000
 358,29;  987,840; 1112,624;  931,768; 0,00000
 358,89;  976,346; 1084,567;  988,471; 0,00000
 359,48;  985,397; 1128,867;  983,145; 0,00000
 360,07; 1811,207; 1911,421; 1668,101; 0,00000
 360,66; 1289,079; 1439,673; 1185,986; 0,00000
 361,26; 2045,138; 2206,405; 2045,515; 0,00000
 361,85; 1205,894; 1240,744; 1089,044; 0,00000
 362,44; 1320,909; 1459,022; 1263,450; 0,00000
 363,04; 1027,067;  958,057;  919,479; 0,00000
 363,63; 1070,318; 1089,723; 1067,203; 0,00000
 364,22; 1417,088; 1571,644; 1429,638; 0,00000
 364,81; 1179,489; 1152,340; 1054,138; 0,00000
 365,41; 1801,468; 1829,327; 1767,377; 0,00000
 366,00;  714,056;  587,441;  754,972;75,57694
 366,59; 1720,695; 1674,013; 1591,943; 0,00000
 367,18; 3139,822; 3150,908; 3032,855; 0,00000
 367,78; 1286,584; 1179,189; 1272,087;115,60483
 368,37; 1141,761; 1052,480; 1181,826;69,02468
 368,96;  957,597;  869,502;  862,094; 0,00000
 369,55; 1624,502; 1536,748; 1644,297;81,59386
 370,15; 1344,742; 1478,590; 1340,167; 0,00000
 370,74; 1994,616; 2084,757; 1879,805; 0,00000
 371,33; 1611,553; 1610,206; 1621,674;11,74918
 371,92; 2232,625; 2381,458; 2040,558; 0,00000
 372,51; 1633,304; 1757,506; 1561,348; 0,00000
 373,11; 1062,305; 1072,141;  990,297; 0,00000
 373,70;  992,696; 1069,075;  935,493; 0,00000
 374,29;  902,476;  998,758;  883,232; 0,00000
 374,88; 1334,409; 1351,387; 1320,500; 0,00000
 375,48; 1279,837; 1273,343; 1222,964; 0,00000
 376,07; 1384,656; 1321,964; 1351,725;210,65081
 376,66; 1018,629;  951,704;  955,761;1649,64570
 377,25;  607,539;  670,467;  585,066; 0,00000
 377,84; 2078,961; 2114,480; 1993,826; 0,00000
 378,44; 1709,607; 1785,264; 1730,399; 0,00000
 379,03;  910,873;  865,731;  849,283; 0,00000
 379,62;  968,389; 1038,436;  914,290; 0,00000
 380,21;  608,821;  648,273;  637,906; 0,00000
 380,80; 1049,579; 1166,308; 1033,935; 0,00000
 381,39;  492,979;  527,308;  564,935;-91,23532
 381,99; 1132,219; 1111,515; 1082,855; 0,00000
 382,58; 1689,366; 1614,726; 1600,029; 0,00000
 383,17; 2058,635; 2055,647; 1919,464; 0,00000
 383,76; 2184,050; 2269,021; 2106,022; 0,00000
 384,35; 1921,359; 1964,783; 1760,326; 0,00000
 384,94; 2483,104; 2542,871; 2292,399; 0,00000
 385,54; 2000,675; 2040,489; 1886,334; 0,00000
 386,13;  930,733;  916,159;  921,312;282,81735
 386,72; 1693,731; 1717,401; 1626,261; 0,00000
 387,31; 1214,939; 1279,467; 1142,066; 0,00000
 387,90;  954,608;  970,326;  808,950; 0,00000
 388,49;  921,729; 1041,277;  834,160; 0,00000
 389,08; 2401,207; 2515,264; 2250,399; 0,00000
 389,68; 1363,271; 1481,607; 1326,181; 0,00000
 390,27; 1271,615; 1278,695; 1111,254; 0,00000
 390,86; 1251,499; 1302,625; 1244,196; 0,00000
 391,45; 1258,058; 1247,722; 1223,776; 0,00000
 392,04; 1998,791; 2090,924; 1812,442; 0,00000
 392,63;  564,786;  577,678;  620,239;-30,28939
 393,22;  956,799;  980,625;  971,196; 0,00000
 393,81;  866,076;  846,915;  885,935;49,10581
 394,41;  909,057;  916,295;  873,174; 0,00000
 395,00;  896,744;  966,348;  865,218; 0,00000
 395,59;  415,292;  373,621;  435,942;66,86520
 396,18; 1064,919; 1117,515;  996,855; 0,00000
 396,77; 1175,655; 1142,902;  992,174; 0,00000
 397,36; 2703,087; 2864,104; 2598,841; 0,00000
 397,95; 1240,523; 1240,761; 1190,058; 0,00000
 398,54;  771,280;  805,735;  733,536; 0,00000
 399,13; 1523,633; 1625,889; 1468,413; 0,00000
 399,72;  476,375;  514,489;  463,334; 0,00000
 400,31;  929,967;  962,057;  878,479; 0,00000
 400,90; 1250,650; 1348,021; 1251,022; 0,00000
 401,50; 1350,067; 1469,423; 1283,529; 0,00000
 402,09; 1581,272; 1609,669; 1500,732; 0,00000
 402,68; 1432,079; 1466,308; 1464,935; 0,00000
 403,27;  839,419;  882,515;  736,855; 0,00000
 403,86;  864,056;  844,599;  807,674; 0,00000
 404,45;  646,375;  623,854;  624,384; 0,00000
 405,04; 1696,606; 1813,995; 1615,500; 0,00000
 405,63; 1160,377; 1186,977; 1023,486; 0,00000
 406,22;  752,124;  830,396;  722,008; 0,00000
 406,81; 1186,227; 1293,581; 1141,660; 0,00000
 407,40; 1449,219; 1597,307; 1494,507; 0,00000
 407,99; 1694,245; 1751,409; 1575,768; 0,00000
 408,58; 1643,560; 1674,418; 1635,276; 0,00000
 409,17; 1966,345; 2048,775; 1845,819; 0,00000
 409,76; 1901,166; 2057,361; 1843,979; 0,00000
 410,35;  834,363;  867,968;  764,978; 0,00000
 410,94; 1246,399; 1304,625; 1175,196; 0,00000
 411,53; 1897,464; 2006,238; 1778,877; 0,00000
 412,12;  957,988;  960,166;  939,391; 0,00000
 412,71;  840,220;  839,211;  679,355; 0,00000
 413,30;  801,859;  830,783;  783,326; 0,00000
 413,89;  570,939;  619,467;  550,066; 0,00000
 414,48;  660,896;  650,805;  632,594; 0,00000
 415,07; 1406,347; 1387,263; 1343,971; 0,00000
 415,66;  882,835;  889,012;  827,515; 0,00000
 416,25; 1887,797; 1938,867; 1780,145; 0,00000
 416,84; 2298,574; 2356,792; 2162,833; 0,00000
 417,43;  888,404; 1000,871;  904,399; 0,00000
 418,02; 1204,819; 1366,515; 1172,855; 0,00000
 418,61;  823,172;  871,669;  810,732; 0,00000
 419,20;  857,345;  760,775;  802,819;229,68642
 419,79;  738,287;  813,739;  734,790; 0,00000
 420,38; 1143,707; 1135,629; 1194,450;13,73193
 420,97; 1957,716; 2033,122; 1937,855; 0,00000
 421,56;  980,570; 1002,973;  913,232; 0,00000
 422,15;  828,062;  777,541;  839,377;81,70150
 422,74; 2071,045; 2079,409; 1956,768; 0,00000
 423,33; 1118,644; 1061,078; 1122,319;93,99843
 423,92; 1601,957; 1737,660; 1482,225; 0,00000
 424,51; 1098,576; 1114,915; 1068,935; 0,00000
 425,10; 1072,996; 1001,805; 1013,594;603,86690
 425,69;  819,405;  786,933;  819,949;98,35139
 426,28;  852,583;  858,285;  899,239;-13,92218
 426,87; 1038,865; 1050,457; 1081,130;-37,78957
 427,46; 2717,976; 2805,281; 2452,986; 0,00000
 428,04;  575,590;  578,289;  629,493;-5,27096
 428,63; 1170,609; 1231,118; 1024,602; 0,00000
 429,22;  815,447;  833,898;  689,920; 0,00000
 429,81; 1280,018; 1240,245; 1267,957;143,52628
 430,40;  432,741;  390,320;  401,268;387,47495
 430,99; 1527,250; 1462,021; 1414,022; 0,00000
 431,58; 2557,488; 2690,801; 2325,341; 0,00000
 432,17; 2262,280; 2382,100; 2273,587; 0,00000
 432,76; 1499,574; 1591,157; 1519,884; 0,00000
 433,35; 1622,715; 1694,061; 1549,304; 0,00000
 433,94; 2223,069; 2445,911; 2157,681; 0,00000
 434,52;  354,935;  327,377;  394,565;41,01573
 435,11; 1123,964; 1120,760; 1097,630; 0,00000
 435,70;  815,752;  783,144;  852,123;47,27205
 436,29;  423,805;  367,933;  392,949;223,34155
 436,88; 1500,581; 1589,797; 1388,087; 0,00000
 437,47; 1178,607; 1201,421; 1161,101; 0,00000
 438,06; 1084,355; 1137,329; 1041,775; 0,00000
 438,65; 3966,286; 4082,678; 3699,240; 0,00000
 439,23;  844,303;  846,810;  877,848;-8,07679
 439,82; 1856,727; 1833,581; 1733,660; 0,00000
 440,41; 1260,551; 1172,448; 1158,623; 0,00000
 441,00; 1276,269; 1281,911; 1116,681; 0,00000
 441,59; 1629,078; 1730,612; 1598,435; 0,00000
 442,18; 1072,499; 1084,990; 1064,247; 0,00000
 442,77;  757,959;  740,514;  684,428; 0,00000
 443,35; 2053,828; 2135,373; 1922,312; 0,00000
 443,94; 1655,790; 1753,863; 1576,891; 0,00000
 444,53;  699,896;  764,805;  799,594;-186,58085
 445,12; 1520,251; 1606,083; 1419,573; 0,00000
 445,71; 1514,706; 1567,360; 1498,551; 0,00000
 446,30; 2145,310; 2202,814; 2104,102; 0,00000
 446,88;  736,757;  638,025;  840,276;48,81654
 447,47; 1484,520; 1441,942; 1446,457;943,05413
 448,06;  784,207;  692,421;  776,102;109,68655
 448,65; 1542,668; 1446,849; 1438,131; 0,00000
 449,24; 1978,481; 1916,797; 1880,087; 0,00000
 449,82;  909,168; 1007,849;  829,131; 0,00000
 450,41; 1127,108; 1171,691; 1183,000;-394,21562
 451,00; 1180,005; 1150,933; 1249,949;29,36091
 451,59;  426,831;  355,193;  576,913;32,31045
 452,18;  975,629;  900,069;  991,812;82,36087
 452,76;  723,563;  740,968;  794,978;-32,22564
 453,35; 1117,997; 1140,867; 1119,145; 0,00000
 453,94;  930,973;  931,096;  996,333;-0,18889
 454,53; 1128,116; 1111,122; 1137,855;63,56799
 455,12; 1526,061; 1594,845; 1550,877; 0,00000
 455,70;  783,256;  735,964;  818,725;57,14282
 456,29;  962,248;  974,325; 1042,522;-17,70789
 456,88; 1945,260; 1909,210; 1887,928; 0,00000
 457,47; 2402,164; 2359,395; 2250,580; 0,00000
 458,05; 1205,306; 1106,995; 1241,500;73,09120
 458,64; 1126,337; 1043,501; 1079,667;229,04561
 459,23;  715,650;  704,021;  693,022; 0,00000
 459,82; 1828,546; 1834,201; 1871,420;-15,19525
 460,40; 1234,697; 1150,867; 1120,145; 0,00000
 460,99; 1127,875; 1081,584; 1060,485; 0,00000
 461,58; 1448,753; 1391,206; 1455,674;89,26481
 462,17;  376,057;  269,025;  351,276;130,12931
 462,75;  757,251;  658,083;  834,573;56,18918
 463,34; 1188,352; 1149,144; 1202,123;74,00629
 463,93; 1249,169; 1143,911; 1228,681;124,16843
 464,52; 1378,916; 1309,487; 1399,906;76,78559
 465,10; 1129,502; 1017,748; 1174,297;71,38557
 465,69; 1754,332; 1644,619; 1666,515;501,08382
 466,28;  551,200;  336,417;  628,848;73,44746
 466,86; 1627,795; 1529,171; 1636,645;91,76585
 467,45;  457,697;  323,867;  410,145;155,11439
 468,04;  449,644;  280,078;  507,319;74,61928
 468,63; 1220,277; 1016,977; 1272,486;79,56694
 469,21; 1377,172; 1275,461; 1449,384;58,48062
 469,80; 1840,057; 1820,025; 1757,276; 0,00000
 470,39; 1555,119; 1465,672; 1583,558;75,87595
 470,97;  914,199;  802,990;  921,247;94,04055
 471,56;  698,874;  503,792;  742,834;81,61005
 472,15; 1363,152; 1217,509; 1385,174;86,86531
 472,73; 1062,415;  915,061;  941,305;561,47830
 473,32; 1582,100; 1414,417; 1546,848;126,61922
 473,91;  572,398;  359,294;  675,746;67,34148
 474,49; 1932,090; 1727,289; 1832,493;194,67144
 475,08;  755,345;  532,505;  838,920;72,72469
 475,67; 1169,642;  953,382; 1286,819;64,85795
 476,25; 1964,559; 1812,514; 1899,427;174,93810
 476,84;  860,757;  623,391;  870,326;96,12471
 477,43; 1398,879; 1217,039; 1408,036;95,20527
 478,01; 1585,980; 1365,100; 1572,587;106,45472
 478,60;  557,493;  374,413;  680,594;59,79464
 479,19; 1262,960; 1095,575; 1365,978;61,90197
 479,77; 1009,939;  749,197; 1025,167;94,48199
 480,36;  888,534;  598,316;  907,015;94,01335
 480,94;  900,951;  774,448;  975,623;62,88182
 481,53; 1417,081; 1258,162; 1382,138;128,18537
 482,12; 1475,458; 1245,817; 1527,927;81,40089
 482,70; 1180,058;  874,452; 1232,877;85,26358
 483,29;  933,831;  666,558;  982,964;84,47169
 483,88;  904,054;  518,633;  965,275;86,29302
 484,46;  921,878;  602,404;  958,087;89,81998
 485,05; 1114,460;  754,210; 1152,928;90,35224
 485,63; 1848,692; 1441,986; 1822,993;106,74501
 486,22; 1221,721;  860,795; 1341,659;75,05784
 486,81;  683,016;  404,122;  853,855;62,01317
 487,39;  979,812;  527,033;  977,355;100,54555
 487,98;  979,802;  648,540;  951,949;109,18002
 488,56; 1423,938; 1060,135; 1477,616;87,14226
 489,15; 1707,542; 1353,017; 1622,768;131,42674
 489,74; 2097,702; 1697,540; 2240,949;73,63923
 490,32; 1114,780;  802,100; 1236,587;71,96526
 490,91;  918,301;  495,479; 1092,399;70,83405
 491,49; 1041,578;  603,404; 1064,087;95,11407
 492,08; 1204,038;  832,135; 1242,616;90,60163
 492,66; 2351,211; 1986,241; 2330,703;105,95365
 493,25; 1039,331;  638,558; 1131,964;81,22589
 493,84; 1716,551; 1303,448; 1744,623;93,63685
 494,42; 1317,861;  869,637; 1383,529;87,22152
 495,01; 1651,436; 1285,074; 1688,065;90,91075
 495,59; 1313,925;  906,615; 1308,261;101,41027
 496,18;  946,841;  494,320; 1036,268;83,49895
 496,76; 1405,092; 1084,986; 1378,993;108,87699
 497,35;  771,137;  326,501;  880,667;80,23527
 497,93; 1653,447; 1210,263; 1688,971;92,57921
 498,52; 1039,415;  526,061; 1132,304;84,67782
 499,10; 1628,411; 1100,606; 1709,754;86,64645
 499,69; 2726,566; 2332,153; 2682,631;112,53598
 500,27; 2562,090; 2102,655; 2591,543;93,97545
 500,86; 2367,065; 2002,822; 2460,181;79,64042
 501,44; 2813,263; 2298,333; 2880,029;88,52212
 502,03; 1074,545;  485,932; 1257,522;76,28582
 502,61; 1382,272;  903,461; 1485,384;82,28085
 503,20;  689,935;  148,743;  875,616;74,45480
 503,78; 1778,572; 1224,826; 1818,435;93,28469
 504,37; 1040,973;  496,888; 1193,985;78,05010
 504,95; 2825,240; 2376,259; 2806,718;104,30296
 505,54;  766,865;  155,822;  891,181;83,09448
 506,12; 1868,101; 1303,844; 1937,449;89,05498
 506,71; 1242,292;  626,143; 1353,695;84,68795
 507,29; 1214,273;  609,523; 1351,935;81,45756
 507,88; 1101,269;  470,068; 1225,384;83,56786
 508,46;  675,330;   19,496;  898,413;74,61842
 509,05; 1111,932;  537,619; 1332,515;72,25016
 509,63; 2981,430; 2454,496; 3048,413;88,72184
 510,22; 1161,825;  514,250; 1343,210;78,11901
 510,80; 2978,222; 2394,430; 3092,609;83,61637
 511,39; 2468,456; 1841,756; 2548,377;88,68978
 511,97; 1578,099; 1020,355; 1759,297;75,47868
 512,55; 3318,438; 2748,562; 3324,217;98,99613
 513,14; 1185,074;  530,949; 1325,536;82,32266
 513,72; 2041,670; 1420,703; 2234,333;76,32050
 514,31; 2253,996; 1640,597; 2365,246;84,64774
 514,89; 2559,420; 1873,369; 2575,058;97,77142
 515,48; 1710,938;  939,927; 1843,268;85,35107
 516,06; 2210,967; 1397,310; 2279,333;92,24893
 516,65; 1538,271;  739,399; 1709,833;82,32108
 517,23;  839,866;   53,518; 1133,681;72,79902
 517,81; 1409,419;  798,672; 1651,558;71,60946
 518,40; 1986,445; 1161,932; 2120,522;86,01318
 518,98; 2069,912; 1361,303; 2127,254;92,51368
 519,57; 1424,613;  683,729; 1513,855;89,24959
 520,15; 1060,684;  265,077; 1331,891;74,57783
 520,73; 1722,664;  940,395; 1947,580;77,66887
 521,32; 2059,407; 1256,421; 2254,102;80,48530
 521,90; 1425,284;  550,347; 1570,790;85,74095
 522,49; 3819,024; 3029,918; 3864,761;94,52147
 523,07; 1350,123;  535,857; 1552,210;80,11641
 523,65; 3121,627; 2321,738; 3131,362;98,79761
 524,24; 2027,862; 1161,272; 2232,478;80,89848
 524,82; 2114,742; 1280,382; 2291,819;82,49257
 525,40; 2164,965; 1172,822; 2335,181;85,35597
 525,99;  974,653;   81,936; 1263,775;75,53621
 526,57; 1790,456;  914,756; 2064,377;76,17299
 527,16; 2291,729; 1359,227; 2445,514;85,84310
 527,74; 1086,879;   85,831; 1376,688;77,54911
 528,32; 2383,566; 1357,518; 2489,681;90,62723
 528,91; 1372,184;  303,077; 1528,891;87,21607
 529,49; 1844,536;  824,439; 2006,116;86,32623
 530,07; 1864,688;  824,897; 2073,493;83,27681
 530,66; 1146,168;   61,372; 1291,884;88,15811
 531,24; 1610,754;  556,633; 1804,275;84,48904
 531,82; 1467,204;  358,237; 1747,449;79,82702
 532,41; 1919,742;  835,747; 2163,869;81,61860
 532,99; 1749,654;  543,633; 1973,275;84,35824
 533,57; 1913,647;  795,263; 2181,971;80,65028
 534,16; 1988,518;  853,611; 2117,007;89,82985
 534,74; 1646,461;  392,637; 1905,529;82,87600
 535,32; 2754,414; 1535,791; 2902,406;89,17095
 535,90; 2315,071; 1193,765; 2568,884;81,54246
 536,49; 1703,429;  541,800; 1983,913;80,55047
 537,07; 1285,947;   22,263; 1579,971;81,12458
 537,65; 3152,813; 1981,364; 3513,804;76,44338
 538,24; 1487,131;  147,923; 1858,014;78,31207
 538,82; 1778,841;  454,685; 2254,319;73,57917
 539,40; 2855,611; 1497,398; 3099,406;84,78196
 539,99; 2575,446; 1216,567; 2795,471;86,06469
 540,57; 1737,717;  410,549; 1990,457;84,00288
 541,15; 2922,967; 1581,153; 3265,631;79,65755
 541,73; 2574,882; 1250,223; 2880,688;81,24422
 542,32; 1809,773;  227,888; 2086,985;85,08889
 542,90; 2492,005;  879,663; 2664,051;90,35825
 543,48; 3160,734; 1529,108; 3397,667;87,32006
 544,06; 2359,125;  758,250; 2615,210;86,20947
 544,65; 3126,702; 1533,271; 3437,051;83,69829
 545,23; 1939,774;  126,315; 2339,587;81,93568
 545,81; 4677,990; 2993,655; 4966,543;85,37408
 546,39; 1937,873;   -3,747; 2329,036;83,23192
 546,98; 2920,733; 1101,046; 3251,116;84,63388
 547,56; 2749,929;  853,800; 3017,913;87,61690
 548,14; 3497,190; 1430,655; 3775,543;88,12936
 548,72; 3505,356; 1626,756; 3850,377;84,48385
 549,31; 2629,756;  623,756; 3122,377;80,28431
 549,89; 2872,013;  824,095; 3242,906;84,66632
 550,47; 2919,401;  814,844; 3400,449;81,39514
 551,05; 2722,419;  632,672; 3329,558;77,48742
 551,63; 3910,519; 1826,672; 4520,558;77,35468
 552,22; 3039,397;  927,659; 3651,797;77,51951
 552,80; 2912,964;  833,395; 3456,580;79,27649
 553,38; 3058,624;  835,284; 3633,811;79,44677
 553,96; 2895,013;  611,729; 3535,855;78,08432
 554,54; 3800,714; 1512,426; 4387,355;79,59461
 555,13; 3107,315;  779,853; 3875,957;75,17392
 555,71; 2420,610;  -27,029; 3250,804;74,67248
 556,29; 4298,890; 1829,020; 4776,594;83,79332
 556,87; 3182,673;  615,888; 3799,985;80,61265
 557,45; 2937,711;  345,241; 3659,703;78,21692
 558,03; 2990,137;  208,231; 3736,768;78,84021
 558,62; 3692,652;  993,875; 4450,225;78,08170
 559,20; 3197,972;  362,191; 3777,485;83,03181
 559,78; 4211,533; 1476,046; 5043,116;76,68724
 560,36; 3455,082;  558,589; 4214,739;79,22248
 560,94; 3683,980;  795,892; 4454,239;78,94517
 561,52; 4693,183; 1661,015; 5250,340;84,47737
 562,11; 3815,597;  693,024; 4317,848;86,14414
 562,69; 4179,079; 1087,831; 4861,688;81,91216
 563,27; 3289,966;   90,883; 3841,732;85,28958
 563,85; 4433,032; 1101,985; 4932,565;86,95935
 564,43; 3264,107;  -40,213; 4063,152;80,52708
 565,01; 3816,053;  427,936; 4603,775;81,13618
 565,59; 3465,010;  172,337; 4197,855;81,79502
 566,18; 3727,918;  302,976; 4602,058;79,66682
 566,76; 3927,542;  578,382; 4877,819;77,89765
 567,34; 4387,587; 1067,897; 5304,493;78,35750
 567,92; 4427,832; 1132,350; 5504,616;75,37241
 568,50; 4251,803;  825,967; 5120,551;79,77109
 569,08; 4760,603; 1398,967; 5776,551;76,79204
 569,66; 4150,257;  659,183; 5233,978;76,31106
 570,24; 4160,041;  635,320; 5175,268;77,63791
 570,82; 4969,939; 1509,989; 6008,819;76,90779
 571,40; 3905,642;  252,747; 5119,870;75,05245
 571,99; 3897,262;  394,699; 5043,080;75,35019
 572,57; 4108,917;  519,341; 5278,108;75,43080
 573,15; 5340,257; 1693,817; 6439,927;76,83008
 573,73; 3691,667;  -59,055; 5068,283;73,15145
 574,31; 4199,149;  369,386; 5361,072;76,72284
 574,89; 4524,521;  661,161; 5892,710;73,84735
 575,47; 3860,254;  -57,002; 5042,326;76,81906
 576,05; 4975,616; 1024,487; 6122,906;77,49714
 576,63; 4816,337;  720,231; 6045,768;76,91442
 577,21; 4399,631;  330,558; 5531,964;78,23026
 577,79; 4849,553;  727,936; 6058,775;77,31647
 578,37; 4245,422; -195,143; 5358,210;79,96188
 578,95; 4724,257;  355,817; 5838,927;79,67084
 579,53; 4859,413;  324,095; 5888,906;81,49994
 580,11; 4473,012;  -96,967; 5555,355;80,85135
 580,69; 5759,889; 1179,958; 6884,043;80,29211
 581,27; 7094,479; 2450,196; 8413,739;77,87791
 581,85; 5430,450;  611,813; 6310,674;84,55439
 582,43; 6073,809; 1271,910; 7117,253;82,14914
 583,01; 5376,971;  556,765; 6419,884;82,21232
 583,59; 5125,441;  293,685; 6248,319;81,14279
 584,17; 5713,870;  920,703; 7047,333;78,23496
 584,75; 5579,972;  652,191; 7030,485;77,25860
 585,33; 5843,353;  957,936; 6978,775;81,14178
 585,91; 6017,913; 1176,095; 7530,906;76,19137
 586,49; 5331,232;  536,619; 7144,515;72,55885
 587,07; 5204,637;  577,501; 7206,667;69,79968
 587,65; 5590,562;  995,637; 7523,529;70,38910
 588,23; 5320,344;  753,235; 7574,021;66,95869
 588,81; 5638,860;  955,941; 7658,029;69,87254
 589,39; 5381,985;  654,139; 7526,442;68,79566
 589,97; 6557,879; 1810,831; 8728,688;68,62021
 590,55; 5099,524;  341,919; 7254,761;68,82271
 591,13; 5401,834;  649,316; 7644,015;67,94457
 591,71; 5842,834; 1032,108; 7995,667;69,08431
 592,29; 5435,668;  639,007; 7752,833;67,42731
 592,87; 6173,650; 1408,813; 8355,674;68,58979
 593,45; 5349,912;  371,033; 7652,355;68,37877
 594,03; 6799,660; 1592,941; 8945,029;70,81959
 594,61; 5414,799;  195,355; 7620,297;70,29608
 595,19; 6028,488;  590,897; 8031,493;73,08005
 595,77; 5845,837;  139,866; 7694,717;75,52724
 596,35; 6402,806;  645,090; 8143,652;76,78427
 596,93; 5921,678;   65,404; 7661,087;77,10004
 597,51; 6379,123;  453,492; 8042,160;78,08526
 598,09; 6493,111;  586,606; 8094,753;78,66794
 598,66; 7187,131; 1345,923; 9008,015;76,23516
 599,24; 5953,054;  277,998; 8024,326;73,26124
 599,82; 6649,076; 1395,011; 8957,087;69,47913
 600,40; 5663,032;  502,619; 8426,515;65,12470
 600,98; 6572,802; 1630,540; 9392,949;63,66918
 601,56; 5039,792;  220,778; 8278,645;59,80509
 602,14; 5213,215;  593,218; 8468,007;58,66821
 602,72; 5262,955;  621,059; 8674,877;57,63597
 603,30; 5082,127;  608,738; 8624,362;55,80837
 603,87; 5254,473;  787,618; 8784,087;55,86034
 604,45; 5259,186;  867,773; 9101,392;53,33514
 605,03; 4636,155;  278,059; 8349,877;53,99150
 605,61; 5210,799;  931,721; 9060,348;52,64208
 606,19; 4426,945;  131,932; 8374,521;52,10757
 606,77; 5454,619; 1341,037; 9319,608;51,55787
 607,35; 4035,568; -101,993; 8114,833;50,35474
 607,93; 4322,591;  123,081; 8523,145;49,99379
 608,50; 5140,530; 1065,861; 9251,464;49,77848
 609,08; 4683,605;  546,090; 8815,652;50,03306
 609,66; 6000,027; 1862,103;10189,413;49,69101
 610,24; 5533,164; 1272,395; 9749,580;50,26160
 610,82; 4371,604;  196,663; 8571,051;49,85369
 611,40; 5587,119; 1506,672; 9955,558;48,29568
 611,97; 4392,990;  115,020; 8879,594;48,80979
 612,55; 4125,270;  -92,932; 8620,384;48,41098
 613,13; 5433,837; 1050,231; 9894,768;49,56287
 613,71; 5786,768; 1462,007;10274,833;49,07349
 614,29; 5236,202;  908,905; 9601,000;49,78428
 614,87; 5027,700;  625,147; 9522,949;49,47910
 615,44; 5585,096; 1164,963;10111,297;49,40720
 616,02; 4643,485;  218,773; 9176,392;49,39608
 616,60; 4706,605;  269,090; 8903,652;51,39248
 617,18; 5601,009; 1210,275;10008,304;49,90589
 617,76; 5616,417; 1195,914;10327,507;48,40889
 618,33; 4716,999;  204,086; 9506,398;48,51388
 618,91; 5713,860; 1115,306;10483,079;49,08908
 619,49; 6353,219; 1740,037;11136,608;49,09431
 620,07; 5707,917; 1120,976;10326,058;49,83054
 620,64; 5296,786;  780,200;10064,992;48,64499
 621,22; 4446,054; -108,002; 9139,326;49,24726
 621,80; 4836,491;  307,081; 9634,145;48,56202
 622,38; 6406,090; 2106,020;11069,594;47,97272
 622,95; 5477,157;  928,183;10352,979;48,26603
 623,53; 4505,742;  -88,253; 9510,869;47,85849
 624,11; 5104,779;  569,831; 9986,688;48,15777
 624,69; 4634,999;  189,086; 9680,398;46,84192
 625,26; 4592,302;  196,540; 9976,949;44,94456
 625,84; 4624,003;  121,967; 9892,551;46,07746
 626,42; 4944,840;  469,624;10123,769;46,35539
 627,00; 5422,818;  912,245;10591,957;46,59822
 627,57; 5761,505; 1095,298;10806,000;48,05221
 628,15; 4561,526; -119,958; 9484,862;48,74098
 628,73; 5980,795; 1432,901;11296,746;46,10670
 629,31; 5248,252;  626,509;10349,174;47,53576
 629,88; 5553,849;  788,117;10983,174;46,74552
 630,46; 4553,952; -184,125; 9813,225;47,39333
 631,04; 5180,170;  493,703;10793,333;45,50131
 631,61; 5259,791;  546,081;10761,145;46,14469
 632,19; 4682,143; -232,826;10121,471;47,46792
 632,77; 5278,980;  485,527;10920,188;45,93780
 633,34; 4947,337;  215,866;10617,718;45,48681
 633,92; 5772,171;  790,765;11282,884;47,47760
 634,50; 5043,257;  184,391;10688,326;46,25758
 635,08; 6556,250; 1636,386;12217,072;46,49853
 635,65; 5787,097;  791,024;11465,848;46,80239
 636,23; 5502,280;  475,892;11083,239;47,38591
 636,81; 6484,073; 1470,888;12090,985;47,20470
 637,38; 4872,495; -310,099;10746,746;46,87226
 637,96; 4986,166; -110,482;11171,682;45,17438
 638,54; 6282,225; 1350,615;12261,261;45,19998
 639,11; 5406,307;  144,152;11460,203;46,50169
 639,69; 6975,396; 1775,328;12820,348;47,08066
 640,26; 5261,990;  136,788;11181,254;46,40516
 640,84; 5911,386;  880,792;11766,494;46,21286
 641,42; 5338,682;  182,797;11308,733;46,34113
 641,99; 5385,978;  103,801;11266,973;47,31788
 642,57; 5800,373;  526,805;11708,212;47,16373
 643,15; 6819,369; 1497,809;12840,451;46,91640
 643,72; 5261,964; -126,187;11275,691;47,25670
 644,30; 5533,560;  156,817;11530,931;47,27175
 644,87; 6299,656;  883,822;12304,170;47,42267
 645,45; 5213,451; -233,174;11546,409;46,23784
 646,03; 6563,847; 1176,830;12882,648;46,02000
 646,60; 6944,443; 1450,834;13028,889;47,44846
 647,18; 5536,438;   55,838;11840,128;46,50768
 647,75; 5763,634;  229,842;12123,367;46,52777
 648,33; 5636,229;   50,846;11796,606;47,55233
 648,91; 5319,726; -342,149;11758,847;46,78850
 649,48; 5741,521;   64,855;12296,086;46,41124
 650,06; 6121,117;  273,859;12541,325;47,66476
 650,63; 5891,012;    8,863;12507,564;47,06208
 651,21; 6628,108;  794,867;13167,804;47,14516
 651,79; 7043,904; 1184,871;13735,044;46,68488
 652,36; 6653,399;  789,876;13292,283;46,89916
 652,94; 6234,095;  304,880;13108,522;46,30882
 653,51; 6156,690;  157,884;12765,762;47,57983
 654,09; 6863,586;  770,888;13610,002;47,45420
 654,66; 6674,882;  561,892;13648,241;46,71272
 655,24; 6540,278;  344,896;13246,480;48,02032
 655,81; 7253,973; 1133,901;14016,720;47,50569
 656,39; 6676,269;  424,905;13591,959;47,47732
 656,96; 6454,064;   44,909;13734,199;46,81876
 657,54; 7840,360; 1420,913;14695,438;48,35915
 658,11; 6996,356;  505,917;14174,678;47,48374
 658,69; 6765,751;  590,921;14363,917;44,83288
 659,27; 7175,047;  855,925;14585,157;46,02677
 659,84; 7731,243; 1275,930;15140,396;46,56013
 660,42; 6714,639;   87,934;14029,636;47,53153
 660,99; 6558,834; -329,062;13886,875;48,45193
 661,57; 7584,930;  684,942;14808,114;48,85580
 662,14; 8114,326;  955,946;15338,354;49,77177
 662,72; 6989,921; -294,050;14134,594;50,48272
 663,29; 7412,717;   -0,045;15058,833;49,22519
 663,87; 7115,813; -295,041;14640,072;49,62034
 664,44; 8759,608; 1287,963;16148,313;50,27907
 665,01; 8335,204;  451,967;15119,552;53,74598
 665,59; 8241,800;  212,971;15119,791;53,86010
 666,16; 8247,795;   15,975;14958,030;55,09162
 666,74; 8877,191;  177,979;15365,270;57,27955
 667,31; 9439,787;  139,984;15867,510;59,13075
 667,89;10251,183;  391,988;16128,749;62,65072
 668,46;11748,778; 1389,992;17066,988;66,07635
 669,04;12062,174; 1139,996;16862,229;69,46964
 669,61;11808,970;  219,000;16538,467;71,01929
 670,19;12010,165;   48,004;16499,707;72,71078
 670,76;12212,860;   40,009;16579,945;73,59673
 671,33;12353,057;  -66,987;16555,186;74,71974
 671,91;14037,852; 1346,017;17881,426;76,75549
 672,48;13073,848;  285,021;17031,664;76,36651
 673,06;13758,644;  960,025;17829,904;75,86669
 673,63;13007,139;  232,029;17792,145;72,75071
 674,21;12567,635; -369,967;17560,383;72,15476
 674,78;13422,230;  779,038;18379,623;71,83393
 675,35;13072,226;  486,042;17988,861;71,90946
 675,93;13745,521; 1238,046;18882,102;70,88776
 676,50;12569,817;  326,050;18061,342;69,03618
 677,08;12359,413;  109,054;17941,580;68,69671
 677,65;12272,809;  -44,942;17528,820;70,09171
 678,22;12593,704;  271,063;18062,059;69,26336
 678,80;12056,100; -268,933;18000,299;67,46333
 679,37;12340,695; -122,929;18538,539;66,78802
 679,94;12423,091;    6,075;18444,777;67,34213
 680,52;13300,087;  627,079;19360,018;67,65093
 681,09;13640,282;  755,083;19517,256;68,67648
 681,67;14247,878;  943,087;20176,496;69,17542
 682,24;13998,074;  756,092;20211,736;68,06242
 682,81;13557,069;   -6,904;19542,975;69,38137
 683,39;13837,965;  -68,900;19962,215;69,42631
 683,96;14435,161;  233,104;20379,453;70,49445
 684,53;15306,957;  917,108;21160,693;71,08350
 685,11;15502,652;  650,112;21266,934;72,04088
 685,68;15572,647;  306,117;21382,172;72,43543
 686,25;15467,743;   37,121;21326,412;72,48068
 686,83;16248,039;  540,125;22012,652;73,15354
 687,40;16736,436;  628,129;22199,891;74,67312
 687,97;16977,531;  533,133;22397,131;75,21222
 688,55;16780,926;  -44,863;22060,369;76,11677
 689,12;17088,021;  218,141;22226,609;76,65177
 689,69;17867,617; 1332,146;23025,850;76,22244
 690,27;16748,113;  126,150;22136,088;75,52026
 690,84;16539,908; -329,846;21430,328;77,52582
 691,41;18041,705;  813,158;22856,566;78,15736
 691,98;18433,900; 1105,162;22987,807;79,18942
 692,56;18406,795;  630,166;23029,047;79,36392
 693,13;18020,992; -276,829;22268,285;81,16092
 693,70;19098,188;  669,175;23165,525;81,92001
 694,28;18828,184;  262,179;22800,764;82,37431
 694,85;18383,979;  -51,817;22327,004;82,38055
 695,42;18749,773;  173,187;22803,244;82,08811
 695,99;19327,270;  727,191;23561,482;81,45678
 696,57;18777,465;  -45,805;23217,723;80,91322
 697,14;19432,461;  419,200;23837,963;81,18815
 697,71;19363,258;  206,204;24585,201;78,58016
 698,28;19786,852;  560,208;25183,441;78,08334
 698,86;21118,148; 2059,212;25996,680;79,61969
 699,43;19775,344;  745,216;24324,920;80,70554
 700,00;19499,139;  273,220;24103,160;80,67968
 700,57;18972,936; -392,775;24268,398;78,52713
 701,15;20232,432;  748,229;25565,639;78,51022
 701,72;19676,127; -110,767;25040,877;78,67038
 702,29;20678,223;  806,237;26119,117;78,50543
 702,86;19365,918; -429,759;25000,357;77,84344
 703,43;20524,613;  899,245;26116,596;77,82486
 704,01;19612,010;  -93,751;25421,836;77,23029
 704,58;19402,904; -379,746;25187,074;77,37626
 705,15;20644,801;  695,258;26894,314;76,14604
 705,72;19648,996; -358,738;25535,555;77,26697
 706,29;20343,191;  111,266;26087,793;77,88541
 706,87;20680,287;  435,270;26112,033;78,84567
 707,44;20863,883;  232,274;26679,271;78,01116
 708,01;20745,680;  271,279;27006,512;76,58209
 708,58;20358,574; -329,717;26225,752;77,90595
 709,15;20630,770; -434,713;26359,990;78,61808
 709,72;22215,166; 1309,291;27780,230;78,97670
 710,30;21551,262;  562,295;27631,471;77,53826
 710,87;20498,457; -362,701;26489,709;77,68821
 711,44;21122,953;  -48,697;26860,949;78,67681
 712,01;21710,148;  -87,692;27558,188;78,84662
 712,58;21704,545; -317,688;27898,428;78,04842
 713,15;22597,641;  327,316;28736,668;78,39082
 713,73;22732,135;  322,320;28547,906;79,39539
 714,30;23044,631;  619,324;28847,146;79,44398
 714,87;23222,527;  498,328;29146,385;79,32196
 715,44;23367,723;  -18,667;29290,625;79,79173
 716,01;24415,318;  669,337;30143,865;80,56442
 716,58;24174,814;  467,341;29935,104;80,45223
 717,15;25476,010; 1913,345;31659,344;79,21289
 717,72;23511,006;  -44,651;29924,582;78,59946
 718,30;23949,602; -431,647;30102,822;79,84828
 718,87;24801,297;  328,358;30486,063;81,14987
 719,44;25162,893;  275,362;30407,301;82,59519
 720,01;24850,488;  238,366;30531,541;81,24643
 720,58;25658,084; 1059,370;31788,781;80,04942
 721,15;24430,680; -253,626;30170,020;81,13527
 721,72;25002,074;  150,378;30359,260;82,26619
 722,29;25516,270;  609,382;30874,498;82,29569
 722,86;25055,865;  215,387;30672,738;81,55824
 723,43;25758,662;  907,391;31388,979;81,52880
 724,00;25533,758;  609,395;30848,217;82,42505
 724,57;25610,854;  709,399;30518,457;83,53654
 725,14;25113,850;  124,403;29980,695;83,69910
 725,72;25811,244;  259,407;30731,936;83,85204
 726,29;26402,141;  573,411;31620,176;83,19298
 726,86;27158,436; 1334,416;32353,414;83,25227
 727,43;26955,432;  858,420;32400,654;82,73673
 728,00;26281,326;  228,424;32355,893;81,09230
 728,57;27034,422;  997,428;32906,133;81,59840
 729,14;26304,418;  -33,568;32106,373;81,94784
 729,71;26778,014;  587,436;32734,611;81,47085
 730,28;27009,010;  957,441;33278,852;80,60158
 730,85;26867,305;  796,445;33126,090;80,64072
 731,42;26248,400;  -73,551;32633,330;80,47833
 731,99;26598,996;  -32,547;32529,570;81,78689
 732,56;27961,592; 1321,457;34279,809;80,82969
 733,13;27167,889;  360,461;33754,047;80,27718
 733,70;27347,684;  606,466;34314,289;79,33238
 734,27;26830,279;  127,470;34161,527;78,45908
 734,84;26167,676; -530,526;33265,766;78,99743
 735,41;27257,070;  946,478;34355,008;78,75412
 735,98;26755,867;  274,482;33986,246;78,55236
 736,55;26155,563; -456,514;33828,484;77,62018
 737,12;26953,059; -246,510;34080,727;79,23611
 737,69;27301,053;   80,495;34474,965;79,14225
 738,26;27370,148;  -42,501;34849,203;78,56495
 738,83;28101,145;  395,503;35199,445;79,60489
 739,40;28567,041;  317,507;35774,684;79,67226
 739,97;28602,035;  146,511;35534,922;80,40916
 740,53;29086,832;  718,515;35604,160;81,31802
 741,10;29156,828;  796,520;35487,402;81,75148
 741,67;28819,223;  375,524;35446,641;81,10292
 742,24;28790,119;  312,528;35841,879;80,15230
 742,81;27926,414; -436,468;35348,121;79,26005
 743,38;29730,711; 1609,536;37263,359;78,87282
 743,95;28787,006;  342,540;36590,598;78,47170
 744,52;29821,801; 1037,544;37518,840;78,90141
 745,09;28874,297; -201,451;37048,078;78,05669
 745,66;29667,092;  905,553;37857,316;77,83536
 746,23;29643,688;  698,557;37133,555;79,44321
 746,80;30275,283; 1341,561;37598,797;79,80124
 747,36;29989,580;  770,565;36981,035;80,69217
 747,93;29351,576;   -4,431;35898,273;81,76545
 748,50;28949,971; -125,426;35838,516;80,84597
 749,07;28893,666;  173,578;35596,754;81,07711
 749,64;28481,963;  -39,418;35579,992;80,07258
 750,21;30083,357; 1177,586;37115,234;80,43312
 750,78;29258,754;  -82,410;36671,473;79,83147
 751,35;30073,850;  673,594;36777,711;81,43186
 751,92;29239,145;  -17,402;35856,953;81,55281
 752,48;28660,041; -403,397;35851,191;80,16485
 753,05;29246,836;  110,607;36300,430;80,50945
 753,62;30758,932;  970,611;37484,668;81,58042
 754,19;30907,527;  922,615;37367,910;82,27375
 754,76;31004,424; 1205,619;37988,148;81,01347
 755,33;29264,318; -403,377;36545,387;80,29415
 755,89;30759,615; 1093,628;38265,629;79,80735
 756,46;29986,211;  261,632;37561,867;79,69006
 757,03;30234,906;  353,636;37508,105;80,42443
 757,60;29734,701; -295,360;36590,348;81,41381
 758,17;30868,396;  468,644;37604,586;81,86073
 758,74;31734,793; 1008,648;38304,824;82,38417
 759,30;30722,889; -459,348;37433,063;82,29151
 759,87;31247,785;  296,657;37978,305;82,13847
 760,44;31605,779; 1178,661;38407,543;81,72987
 761,01;30554,176;  164,665;37524,781;81,34212
 761,58;31185,570;  720,669;37989,023;81,74469
 762,14;30759,268;  272,673;37869,262;81,08873
 762,71;30478,262;    8,677;38388,500;79,38959
 763,28;30820,559;  759,682;37642,742;81,50321
 763,85;29961,555; -385,314;36763,980;81,68895
 764,41;31043,049;  320,690;38186,219;81,13543
 764,98;31733,346;  306,694;38796,461;81,64937
 765,55;30896,041; -423,302;38011,699;81,48651
 766,12;31126,037;  695,702;38086,938;81,38360
 766,69;30694,332;  397,706;38030,176;80,50661
 767,25;31666,428; 1124,711;38665,418;81,35626
 767,82;31346,824;  389,715;38506,656;81,21614
 768,39;30914,520;  -43,281;37673,895;82,07879
 768,95;30260,016; -112,277;37202,137;81,39560
 769,52;30096,010;  286,727;37509,375;80,08372
 770,09;30179,506; 1030,731;37579,613;79,75285
 770,66;31986,201; 2322,736;39281,855;80,26021
 771,22;30693,297; 1146,740;38476,094;79,15100
 771,79;30711,393; 1407,744;37870,332;80,36634
 772,36;30233,189;  883,748;36709,570;81,92259
 772,93;29825,785;   13,752;36430,813;81,86282
 773,49;30936,080;  819,756;37420,051;82,28438
 774,06;30455,576;  251,760;37375,289;81,36030
 774,63;29977,072;  293,765;37242,531;80,33640
 775,19;29338,668;   63,769;36666,770;79,97951
 775,76;29202,764;  172,773;35865,008;81,33419
 776,33;28847,859; -162,223;35012,250;82,47482
 776,89;29853,555;  731,781;35707,488;83,26286
 777,46;29276,750;  198,785;35375,727;82,66200
 778,03;29544,846;  465,790;35739,969;82,43723
 778,59;28319,740; -475,206;34639,207;82,00321
 779,16;29303,736; -159,202;35914,445;81,67441
 779,73;30290,932;  291,802;37116,684;81,46429
 780,29;30982,328;  489,806;38232,926;80,78962
 780,86;30769,324;  142,810;38311,164;80,24059
 781,43;31309,320; 1048,814;38952,402;79,83547
 781,99;30190,314;  -51,181;37470,645;80,59708
 782,56;30969,711;  533,823;37703,883;81,88281
 783,13;31446,506;  378,827;37606,121;83,45403
 783,69;31062,803;  -40,169;37415,363;83,03973
 784,26;30524,797;  -53,165;37311,602;81,83635
 784,82;30610,693;  194,839;37568,840;81,38239
 785,39;29819,789; -575,156;36612,082;81,73488
 785,96;30525,785;  131,848;37223,320;81,94319
 786,52;30787,480;  375,852;37753,559;81,36301
 787,09;30368,977;  139,856;37429,797;81,06508
 787,65;29570,072; -292,140;36713,039;80,69739
 788,22;30016,268;  604,864;37328,277;80,08897
 788,79;30027,863;  551,869;37550,516;79,66776
 789,35;29667,359;   23,873;36703,758;80,81674
 789,92;29585,055;  -82,123;36485,996;81,12853
 790,48;29691,051;  159,881;36139,234;82,07810
 791,05;29628,246;  404,885;36409,477;81,16565
 791,62;29933,041;  981,889;36074,715;82,49878
 792,18;29486,537;  333,893;35516,953;82,85989
 792,75;29116,033;  -73,102;34910,191;83,43736
 793,31;28926,828; -170,098;34669,434;83,51698
 793,88;29751,424; 1132,906;35622,672;82,97684
 794,44;28250,221;  138,910;34712,910;81,30766
 795,01;28578,215;  604,914;35506,152;80,14988
 795,57;28116,412;  125,918;35535,391;79,04804
 796,14;28897,506;  652,923;35954,629;80,00912
 796,70;27750,303; -375,073;35179,871;79,10398
 797,27;28616,799;  779,931;35853,109;79,36796
 797,83;27748,193;  -19,065;35087,348;79,09455
 798,40;28276,189;  338,939;35610,590;79,20596
 798,97;28031,385;   86,943;35015,828;80,00382
 799,53;27924,980; -255,053;34309,066;81,52973
 800,10;27916,877; -396,048;33615,305;83,24551
 800,66;28698,572;  340,956;34366,547;83,34202
 801,23;29059,867;  355,960;34572,785;83,88828
 801,79;31331,264; 2639,964;37099,023;83,26199
 802,35;29250,158;  506,968;35584,266;81,94243
 802,92;28953,754;  187,972;35661,504;81,09083
 803,48;28524,051;  296,977;35546,742;80,07734
 804,05;28785,945;  551,981;35685,984;80,36079
 804,61;29734,041; 1141,985;37001,223;79,73414
 805,18;29088,938;  333,989;36010,461;80,59919
 805,74;29735,732;  923,993;36744,699;80,43320
 806,31;29053,828;  258,997;35371,941;82,00631
 806,87;30902,924; 2252,001;37057,180;82,31799
 807,44;28383,520; -300,994;35103,418;81,01960
 808,00;29719,516;  975,010;36295,660;81,38159
 808,57;29404,811;  558,014;35914,898;81,58750
 809,13;32296,607; 3568,018;38425,137;82,41814
 809,69;28955,902;  426,022;34779,379;83,04830
 810,26;30109,799; 1852,026;35396,617;84,23943
 810,82;27683,994; -497,969;33530,855;82,81792
 811,39;28720,490;  831,035;34335,098;83,24201
 811,95;29620,885; 1828,039;35494,336;82,55391
 812,51;27806,182; -108,957;33797,574;82,32968
 813,08;27471,676;  106,047;33423,813;82,13525
 813,64;27122,172;   -2,949;33307,055;81,43236
 814,21;28548,469; 1948,055;34451,293;81,83927
 814,77;30168,863; 3342,060;35695,531;82,91785
 815,33;27604,160;  200,064;33798,773;81,56294
 815,90;27425,055;  249,068;33094,012;82,74024
 816,46;27450,852;  435,072;33474,250;81,76892
 817,03;26975,346;  338,076;33414,492;80,53251
 817,59;27643,742; 1311,080;34220,730;80,01502
 818,15;27397,238; 1280,085;34041,969;79,71811
 818,72;26926,033;  693,089;33398,207;80,21052
 819,28;26228,229;  290,093;32554,449;80,39254
 819,84;27722,824; 1579,097;33190,688;82,70298
 820,41;26166,320; -107,899;31749,928;82,47336
 820,97;27369,516;  786,105;32738,166;83,19780
 821,53;26713,313;  -72,891;32638,406;81,88670
 822,10;27689,807; 1009,114;34204,645;80,37435
 822,66;27002,604;  402,118;33692,887;79,90349
 823,22;25743,199; -181,878;32381,125;79,61513
 823,79;28365,795; 2797,126;34379,363;80,95902
 824,35;25454,289;  -63,870;31735,604;80,24711
 824,91;25165,586; -114,866;31444,844;80,10356
 825,48;26112,781;  869,139;32071,082;80,90407
 826,04;25874,678;  905,143;32007,322;80,28227
 826,60;25596,072;  455,147;31744,563;80,34962
 827,17;25774,768;  636,151;31850,801;80,53467
 827,73;24827,764; -474,845;31057,041;80,24451
 828,29;25340,959; -106,841;30806,279;82,32039
 828,85;25755,955;  345,163;31090,520;82,64920
 829,42;27062,551; 1574,168;32239,760;83,11721
 829,98;26424,846; 1022,172;31590,998;83,09993
 830,54;26404,941;  939,176;31262,238;83,98151
 831,11;25272,438;  -40,820;30066,477;84,07682
 831,67;25265,633; -114,816;30076,717;84,06479
 832,23;25430,930; -180,812;30337,957;83,92128
 832,79;25373,025;  -18,807;30969,195;81,94085
 833,36;25931,021;  864,197;31529,436;81,74345
 833,92;24472,217;   32,201;30589,674;79,98049
 834,48;24543,412;  377,205;30364,914;80,58704
 835,04;24155,207;  -91,791;30285,154;79,82040
 835,60;25227,803;  721,213;31201,393;80,40172
 836,17;25542,699;  476,217;30993,633;82,13829
 836,73;24935,594; -245,778;29977,871;83,31678
 837,29;24771,891; -108,774;29625,111;83,67781
 837,85;25655,486;  864,230;30093,352;84,81697
 838,42;24571,682; -418,766;29277,590;84,15325
 838,98;24902,178; -445,762;29679,830;84,14088
 839,54;25026,873; -366,758;30348,070;82,67548
 840,10;25724,369;  596,247;31214,309;82,06961
 840,66;24639,365;  262,251;30196,549;81,43540
 841,23;24678,260;  593,255;30326,787;81,00284
 841,79;24702,656;  547,259;29932,027;82,20380
 842,35;25594,352; 1355,263;30698,268;82,60602
 842,91;24092,447;  126,267;28913,506;83,25279
 843,47;24688,943;  209,271;29448,746;83,72131
 844,03;23929,639; -304,724;28423,984;84,35591
 844,60;23839,434; -115,720;28968,225;82,36556
 845,16;23283,830; -513,716;28769,465;81,26694
 845,72;23773,426;   -2,712;29423,703;80,79862
 846,28;23819,721; -208,708;29494,943;80,89385
 846,84;24206,217;  156,296;29817,182;81,08295
 847,40;24890,213;  564,301;30353,422;81,66039
 847,96;24176,607;  -38,695;29369,662;82,34157
 848,53;24257,104;  -30,691;29196,900;83,09886
 849,09;24183,199;  -89,687;29713,141;81,44491
 849,65;25007,695;  538,317;30756,381;80,97600
 850,21;24641,791;  224,321;30468,619;80,73413
 850,77;24639,686;  287,326;30096,859;81,69319
 851,33;24894,482;  633,330;30140,098;82,22233
 851,89;26351,377; 2209,334;31100,338;83,56249
 852,45;24316,074; -186,662;29294,578;83,11298
 853,01;24818,168;  368,342;30122,816;82,17193
 853,57;24963,164;  276,346;30513,057;81,64518
 854,14;23990,859; -484,650;30186,295;79,80031
 854,70;24086,955; -130,645;30814,535;78,25968
 855,26;23905,752;   39,359;30581,775;78,14180
 855,82;23490,047; -137,637;30368,014;77,45347
 856,38;23923,443;  428,367;30205,254;78,90374
 856,94;24073,939;  738,371;30306,492;78,92138
 857,50;23670,035;  235,375;29124,732;81,11866
 858,06;23020,730; -365,620;28025,973;82,37069
 858,62;23233,025;  -84,616;28011,211;82,99326
 859,18;23960,721;  638,388;28632,451;83,31171
 859,74;23861,916;  253,392;28730,689;82,90297
 860,30;24244,813;  354,396;28747,930;84,14034
 860,86;24097,607;  -42,600;28591,170;84,30677
 861,42;24021,504; -457,596;28615,408;84,19873
 861,98;24969,000;  395,409;29592,648;84,16409
 862,54;24225,596; -406,587;28905,889;84,03310
 863,10;25081,592;  613,417;29714,127;84,08102
 863,66;24210,887;  -84,579;29300,367;82,67997
 864,22;24970,682;  761,425;30392,605;81,70196
 864,78;24523,078;   34,429;30150,846;81,31329
 865,34;24432,174;   -2,566;30026,086;81,37142
 865,90;24969,869;  425,438;29536,324;84,31358
 866,46;24976,465;  338,442;29383,564;84,82671
 867,02;26819,660; 2305,446;30891,803;85,75494
 867,58;23967,457;  -68,550;28781,043;83,31489
 868,14;25384,451; 1577,454;30460,283;82,42613
 868,70;24717,148;  957,458;29963,521;81,91284
 869,26;24525,043;  821,463;29789,762;81,82593
 869,82;23595,039; -166,533;28786,000;82,07079
 870,38;23179,934; -437,529;28554,240;81,46265
 870,94;24751,730; 1289,475;29742,480;82,45967
 871,50;23168,926; -418,521;28081,719;82,76227
 872,06;23330,422; -316,517;28806,959;81,19545
 872,62;23297,018; -118,512;28779,199;81,02901
 873,18;23189,313; -104,508;28033,438;82,78437
 873,74;24120,008; 1107,496;29155,678;82,04636
 874,29;23527,404;  729,500;28375,916;82,46242
 874,85;22596,805; -139,500;27493,916;82,27830
 875,41;22717,904;   -0,500;27041,916;84,01026
 875,97;23158,904;  388,500;27542,916;83,85525
 876,53;23652,504;  576,500;27909,916;84,42415
 877,09;23654,904;  535,500;27971,916;84,26539
 877,65;24518,504; 1298,500;28430,916;85,58030
 878,21;23523,205;  176,500;27912,916;84,17347
 878,77;23579,404;  292,500;28783,916;81,73305
 879,33;23460,104;  360,500;28988,916;80,68768
 879,88;23062,205;  -29,500;28579,916;80,71365
 880,44;23082,004;  343,500;28791,916;79,92889
 881,00;22605,705;  -91,500;28400,916;79,66051
 881,56;22569,205;  -89,500;28091,916;80,40300
 882,12;23899,404; 1368,500;28982,916;81,59109
 882,68;23001,205;  303,500;27769,916;82,63803
 883,24;23746,305;  656,500;28187,916;83,86712
 883,79;24762,904; 1452,500;29282,916;83,75873
 884,35;24537,705;  973,500;29327,916;83,10594
 884,91;23147,705; -363,500;27843,916;83,35115
 885,47;23918,004;  634,500;28540,916;83,43423
 886,03;23444,004;  576,500;27927,916;83,60629
 886,59;22289,404; -115,500;27075,916;82,39698
 887,14;23420,904; 1039,500;28067,916;82,80694
 887,70;22092,104; -555,500;27109,916;81,86251
 888,26;24065,904; 1217,500;29086,916;81,98379
 888,82;23649,305;  432,500;29003,916;81,25885
 889,38;24351,004;  984,500;29581,916;81,70844
 889,93;23724,004;  290,500;28919,916;81,85114
 890,49;23260,904; -379,500;28722,916;81,23176
 891,05;23573,705; -196,500;28587,916;82,58012
 891,61;24411,205;  370,500;29761,916;81,79499
 892,17;25083,004;  606,500;30372,916;82,22859
 892,72;24558,004; -188,500;29943,916;82,12585
 893,28;25374,805;  204,500;30875,916;82,06437
 893,84;24860,805; -407,500;29987,916;83,13196
 894,40;26058,404;  635,500;30866,916;84,09432
 894,95;25232,904; -392,500;30178,916;83,82145
 895,51;25925,705;  226,500;30695,916;84,34427
 896,07;25823,504;  -31,500;30807,916;83,83753
 896,63;25567,705; -377,500;30153,916;84,97872
 897,18;26153,004;  424,500;30903,916;84,41272
 897,74;25785,305;  146,500;30961,916;83,20123
 898,30;24997,705; -382,500;30315,916;82,67594
 898,85;25561,504;  348,500;30611,916;83,31182
 899,41;26169,104;  857,500;31616,916;82,28896
 899,97;25130,504; -439,500;30789,916;81,87794
 900,53;25675,904;  445,500;31234,916;81,94506
 901,08;25056,205; -292,500;30547,916;82,19314
 901,64;25720,305;  632,500;31327,916;81,73144
 902,20;24878,305;   -8,500;30174,916;82,45192
 902,75;24905,805;  196,500;29938,916;83,07766
 903,31;24730,305;   -8,500;29833,916;82,89813
 903,87;24849,805;  -91,500;29597,916;84,00739
 904,42;25646,305;  634,500;30405,916;84,01282
 904,98;25291,104;  512,500;30551,916;82,48697
 905,54;24819,205;  282,500;30205,916;81,99834
 906,09;24312,604;  186,500;30060,916;80,75841
 906,65;23571,805; -411,500;29154,916;81,11671
 907,21;24445,504;  479,500;29930,916;81,37471
 907,76;23976,504;  -65,500;29275,916;81,93880
 908,32;24256,504;   11,500;28978,916;83,69750
 908,88;24195,604;  -74,500;29116,916;83,14123
 909,43;25243,504;  962,500;29627,916;84,70487
 909,99;24415,604;  298,500;28989,916;84,05686
 910,54;24008,205;  291,500;28677,916;83,54949
 911,10;24770,705; 1300,500;29463,916;83,33579
 911,66;25220,205; 1931,500;29942,916;83,14005
 912,21;24227,604;  509,500;29325,916;82,30761
 912,77;23904,805; -198,500;29150,916;82,12533
 913,33;25223,705;  994,500;30432,916;82,30472
 913,88;24227,205;  340,500;29829,916;81,00094
 914,44;23037,604; -425,500;28551,916;80,97031
 914,99;22812,205;  -96,500;27898,916;81,83020
 915,55;23114,004;  391,500;27757,916;83,03062
 916,10;23017,104;  379,500;27548,916;83,32017
 916,66;23568,104;  614,500;27768,916;84,52991
 917,22;22647,805; -176,500;27249,916;83,22015
 917,77;22415,205; -493,500;27243,916;82,59135
 918,33;23541,705; 1060,500;28746,916;81,19941
 918,88;22595,504;  420,500;28006,916;80,38378
 919,44;21933,305;  213,500;27300,916;80,18411
 919,99;22144,104;  568,500;27296,916;80,72159
 920,55;22685,904; 1179,500;27279,916;82,39870
 921,10;21856,705;  146,500;25985,916;84,01972
 921,66;22151,004;  676,500;26427,916;83,39155
 922,21;21832,504;  189,500;25744,916;84,69048
 922,77;22148,404;  554,500;26342,916;83,73490
 923,32;23345,604; 2030,500;27235,916;84,56557
 923,88;22508,004;  937,500;26680,916;83,79037
 924,43;22225,205;  542,500;26363,916;83,97179
 924,99;22346,904;  449,500;26494,916;84,07393
 925,54;22082,104;    1,500;26645,916;82,87141
 926,10;21927,604; -310,500;26455,916;83,08211
 926,65;22831,604;  907,500;27870,916;81,31056
 927,21;22510,705; 1037,500;27657,916;80,66442
 927,76;21639,805;  691,500;26999,916;79,62587
 928,32;20248,504; -470,500;25584,916;79,51899
 928,87;20578,305;  229,500;26321,916;77,98743
 929,43;20548,404;  240,500;25923,916;79,07011
 929,98;20322,705;  -58,500;25184,916;80,73870
 930,54;20605,004;  -49,500;25281,916;81,53711
 931,09;20455,104; -240,500;24760,916;82,77773
 931,65;20828,705;  287,500;25156,916;82,59625
 932,20;21060,805;  628,500;25177,916;83,22929
 932,76;20741,205;  519,500;24898,916;82,94581
 933,31;20899,604;  843,500;25070,916;82,78268
 933,86;20197,305;  304,500;24316,916;82,84383
 934,42;19483,604;   14,500;23744,916;82,04282
 934,97;19074,104;  -23,500;23532,916;81,07177
 935,53;18714,004;  262,500;22735,916;82,10369
 936,08;17905,705;  -31,500;21751,916;82,34340
 936,63;16793,805; -127,500;20674,916;81,34298
 937,19;17405,904;  955,500;20966,916;82,20510
 937,74;16056,904;  344,500;20022,916;79,84588
 938,30;15724,404;  635,500;19155,916;81,47174
 938,85;14615,504; -149,500;18251,916;80,23841
 939,40;15329,804; 1008,500;18779,916;80,58617
 939,96;14366,404;  650,500;17763,916;80,14709
 940,51;13443,904;  166,500;16645,916;80,56963
 941,06;13574,404;  916,500;16879,916;79,29321
 941,62;12834,804;  575,500;15715,917;80,97071
 942,17;12613,204;  912,500;15471,917;80,36520
 942,73;13550,304; 1867,500;16103,917;82,06281
 943,28;11244,904; -312,500;13788,917;81,95917
 943,83;11740,204;  278,500;14251,917;82,02506
 944,39;11435,004; -105,500;13751,917;83,28034
 944,94;11841,104;  408,500;14177,917;83,02897
 945,49;13841,304; 2444,500;15957,917;84,33695
 946,05;11120,704; -455,500;13394,917;83,58018
 946,60;12266,404;  653,500;14633,917;83,06551
 947,15;11398,504; -276,500;13749,917;83,23583
 947,70;12169,704;  218,500;14356,917;84,53000
 948,26;12470,904;  214,500;14376,917;86,54176
 948,81;12232,304;  -87,500;14561,917;84,09757
 949,36;12400,104; -126,500;14798,917;83,92800
 949,92;13149,604;  668,500;15478,917;84,27247
 950,47;13227,204;  479,500;15710,917;83,69349
 951,02;13263,404;  373,500;16494,916;79,95516
 951,57;14606,304; 1440,500;17530,916;81,82389
 952,13;14451,004; 1093,500;17711,916;80,37772
 952,68;14335,804;  764,500;17557,916;80,81324
 953,23;15549,804; 1744,500;18803,916;80,92483
 953,79;14606,004;  741,500;17575,916;82,35809
 954,34;14284,704;  294,500;16981,916;83,83685
 954,89;13962,304;  -44,500;16815,916;83,07508
 955,44;14289,704;  184,500;16996,916;83,89754
 955,99;14640,804;  518,500;17411,916;83,59650
 956,55;14516,304;  241,500;17375,916;83,31071
 957,10;14465,004;  143,500;17446,916;82,76692
 957,65;14720,304;  258,500;17833,916;82,28428
 958,20;14855,904;  314,500;18186,916;81,36228
 958,76;15261,104;  781,500;18587,916;81,31678
 959,31;15192,804;  659,500;18571,916;81,13536
 959,86;14211,004; -321,500;17625,916;80,97268
 960,41;14786,704;   11,500;18142,916;81,48952
 960,96;18536,805; 3723,500;21379,916;83,89757
 961,52;15121,604; -244,500;18321,916;82,76290
 962,07;16231,704;  714,500;19137,916;84,22544
 962,62;16170,704;  655,500;19288,916;83,26548
 963,17;15562,104;  328,500;18879,916;82,11559
 963,72;14738,304; -287,500;18075,916;81,82467
 964,27;15358,604;  606,500;19018,916;80,12042
 964,83;14451,404; -466,500;18676,916;77,92708
 965,38;15003,704;  -79,500;19238,916;78,07682
 965,93;15671,404;  288,500;19691,916;79,27936
 966,48;15909,704;  254,500;19819,916;80,01468
 967,03;16808,305; 1035,500;20567,916;80,75194
 967,58;16457,305;  721,500;19628,916;83,22557
 968,13;16127,304;  472,500;19137,916;83,87064
 968,69;17915,004; 2538,500;20651,916;84,89014
 969,24;15414,504;  -28,500;18125,916;85,06472
 969,79;15225,904; -391,500;18189,916;84,04852
 970,34;15698,804;   15,500;18650,916;84,15859
 970,89;16410,504;  686,500;19346,916;84,26395
 971,44;15953,704;   29,500;18929,916;84,25319
 971,99;16940,504; 1432,500;20016,916;83,44628
 972,54;15769,604;  350,500;19114,916;82,17205
 973,09;14735,204; -467,500;17859,916;82,95061
 973,64;15036,404;  -46,500;18259,916;82,39136
 974,20;15387,804;  685,500;18632,916;81,91878
 974,75;16411,504; 1736,500;19436,916;82,90768
 975,30;15239,304;  391,500;18621,916;81,44523
 975,85;20406,404; 5946,500;23449,916;82,61190
 976,40;15116,504;  401,500;18657,916;80,60182
 976,95;14628,304;   53,500;18092,916;80,79421
 977,50;15057,204;  836,500;18410,916;80,91708
 978,05;15086,204;  706,500;18342,916;81,53416
 978,60;13967,904; -456,500;17356,916;80,97495
 979,15;15928,804; 1539,500;18970,916;82,54811
 979,70;14592,104; -110,500;17352,916;84,19088
 980,25;14692,404; -237,500;17489,916;84,21929
 980,80;15176,504;  -14,500;17751,916;85,50404
 981,35;15409,404;   62,500;17914,916;85,96542
 981,90;15179,204;  -63,500;17359,916;87,48402
 982,45;16382,804; 1377,500;18726,916;86,48881
 983,00;16113,804; 1361,500;18436,916;86,39499
 983,55;14958,604;  593,500;17631,916;84,31009
 984,10;14369,704;  103,500;16889,916;84,98660
 984,65;14444,504;  456,500;17143,916;83,82367
 985,20;14634,504;  697,500;17485,916;83,01560
 985,75;14437,904;  953,500;17532,916;81,33220
 986,30;13381,404;  239,500;16297,917;81,83811
 986,85;13419,704;  380,500;16592,916;80,42727
 987,40;13674,304;  814,500;16849,916;80,19626
 987,95;12902,404;   23,500;15970,917;80,75856
 988,50;13160,404;  473,500;16126,917;81,04879
 989,05;14260,004; 1082,500;17138,916;82,07002
 989,60;14023,804;  770,500;16844,916;82,44967
 990,15;14103,904;  643,500;17068,916;81,94864
 990,70;14819,004; 1170,500;17471,916;83,72588
 991,25;13608,804;  363,500;16635,916;81,39728
 991,79;12886,304; -208,500;16037,917;80,60118
 992,34;13996,904; 1149,500;16926,916;81,42908
 992,89;15986,904; 3618,500;18990,916;80,45843
 993,44;12504,304;  531,500;15609,917;79,40359
 993,99;12082,604;   22,500;14901,917;81,05227
 994,54;12480,504;  360,500;15258,917;81,35095
 995,09;12319,004;  183,500;14837,917;82,81124
 995,64;13202,004; 1009,500;15439,917;84,49169
 996,19;12135,904; -173,500;14572,917;83,47387
 996,74;13464,304; 1145,500;15848,917;83,78191
 997,28;12258,704;   68,500;14733,917;83,12211
 997,83;11635,204; -209,500;14090,917;82,82768
 998,38;11762,104;   15,500;14197,917;82,82512
 998,93;11744,404;  285,500;14582,917;80,14667
 999,48;11562,004;  127,500;14174,917;81,39933
1000,03;13542,004; 2120,500;15932,917;82,69012
1000,58;11522,104;   41,500;14153,917;81,35109
1001,12;12460,904; 1208,500;15000,917;81,58399
1001,67;11683,004;  437,500;13973,917;83,07593
1002,22;12189,104; 1110,500;14677,917;81,65596
1002,77;12086,404; 1144,500;14306,917;83,12990
1003,32;10979,804;   61,500;13452,917;81,53210
1003,86;11921,604; 1228,500;14458,917;80,82213
1004,41;11214,104;  435,500;13722,917;81,11888
1004,96;10917,104;   61,500;13510,917;80,71431
1005,51;11156,804;  364,500;13863,917;79,94644
1006,06;12047,304; 1787,500;14716,917;79,35241
1006,60;10248,004;   18,500;12679,917;80,79273
1007,15;10924,504; 1032,500;13303,917;80,61012
1007,70;10464,804;  787,500;13013,917;79,15077
1008,25; 9562,404;  318,500;11873,917;79,99628
1008,80; 8851,704; -377,500;11190,917;79,77932
1009,34; 9919,304; 1141,500;12149,917;79,73720
1009,89; 9599,104;  588,500;11653,917;81,43032
1010,44; 9162,204;  150,500;11342,917;80,51616
1010,99; 9542,504;  425,500;11564,917;81,84453
1011,53; 8908,204; -262,500;10899,917;82,15697
1012,08; 8967,904; -344,500;10770,917;83,77917
1012,63; 9820,504;  360,500;11844,917;82,37252
1013,18; 9922,104;  315,500;12017,917;82,09077
1013,72;10558,604;  489,500;12502,917;83,81549
1014,27;10608,804;   47,500;12379,917;85,63856
1014,82;12012,504;  936,500;13973,917;84,95551
1015,36;11842,204;  208,500;13526,917;87,35050
1015,91;12101,504;  254,500;13780,917;87,58420
1016,46;12290,104;  379,500;13835,917;88,51245
1017,01;11801,704;   96,500;13509,917;87,26489
1017,55;11269,004; -159,500;13214,917;85,45048
1018,10;11486,204;  496,500;13761,917;82,84477
1018,65;11085,504;  475,500;13138,917;83,78468
1019,19;11071,104;  796,500;12939,917;84,61049
1019,74;10765,904;  720,500;12690,917;83,91858
1020,29;10730,804;  548,500;12705,917;83,75384
1020,83;10408,604;  502,500;12678,917;81,35484
1021,38;10567,304;  794,500;12703,917;82,05946
1021,93; 9780,504;  234,500;11807,917;82,48216
1022,47; 9594,904;  244,500;11527,917;82,86855
1023,02; 8892,604; -287,500;10646,917;83,95605
1023,56;10051,904; 1253,500;11793,917;83,47302
1024,11; 8510,304; -334,500;10159,917;84,28104
1024,66; 9226,604;  553,500;10767,917;84,91042
1025,20; 8255,904; -341,500; 9993,917;83,18391
1025,75; 8651,304;  178,500;10591,917;81,36430
1026,30; 8860,904;  471,500;10824,917;81,03029
1026,84; 8130,804; -216,500; 9907,917;82,44726
1027,39; 8949,604;  793,500;10311,917;85,68761
1027,93; 7998,304;   25,500; 9544,917;83,75307
1028,48; 8271,404;  427,500; 9885,917;82,93041
1029,03; 8439,304; 1128,500; 9880,917;83,52897
1029,57; 7439,504;  230,500; 9105,917;81,22440
1030,12; 7357,704;  159,500; 8781,917;83,48244
1030,66; 7519,204;  363,500; 8876,917;84,05208
1031,21; 7583,104;  452,500; 9066,917;82,77524
1031,75; 9598,704; 2524,500;10644,917;87,11627
1032,30; 7845,704;  655,500; 8856,917;87,67027
1032,84; 7983,704;  658,500; 9014,917;87,65963
1033,39; 7379,804;  242,500; 8474,917;86,69755
1033,94; 6950,304; -113,500; 7973,917;87,34315
1034,48; 7972,704; 1106,500; 9174,917;85,09977
1035,03; 7637,504;  802,500; 8934,917;84,04641
1035,57; 6829,804;  163,500; 8157,917;83,38700
1036,12; 6335,604; -158,500; 7679,917;82,84969
1036,66; 7129,804;  509,500; 8482,917;83,02970
1037,21; 6186,604; -244,500; 7451,917;83,55972
1037,75; 7697,604; 1547,500; 8583,917;87,40392
1038,30; 6683,104;  582,500; 7884,917;83,54226
1038,84; 6089,104;   73,500; 7169,917;84,76960
1039,39; 5707,704; -208,500; 6959,917;82,53153
1039,93; 6521,804;  790,500; 7579,917;84,41527
1040,48; 6195,004;  464,500; 7273,917;84,15559
1041,02; 6608,704;  873,500; 7592,917;85,35271
1041,57; 6407,204;  655,500; 7690,917;81,75357
1042,11; 6789,104; 1100,500; 7819,917;84,65920
1042,66; 6051,904;  315,500; 6875,917;87,43964
1043,20; 5372,004; -317,500; 6212,917;87,12315
1043,74; 6109,404;  543,500; 6870,917;87,96488
1044,29; 6606,904; 1296,500; 7291,917;88,57440
1044,83; 5842,004;  546,500; 6447,917;89,73277
1045,38; 5292,504;  158,500; 5785,917;91,23200
1045,92; 4749,804; -170,500; 5330,917;89,43704
1046,47; 5097,604;  172,500; 5799,917;87,51981
1047,01; 5675,304;  708,500; 6471,917;86,17812
1047,55; 5254,504;  485,500; 6291,917;82,13335
1048,10; 4613,104; -328,500; 5574,917;83,70753
1048,64; 5263,304;  523,500; 6339,917;81,49011
1049,19; 5142,804;  456,500; 6165,917;82,08027
1049,73; 5149,604;  590,500; 6175,917;81,62514
1050,27; 4691,504;  111,500; 5673,917;82,33839
1050,82; 4604,904;  254,500; 5557,917;82,03022
1051,36; 4281,904;  136,500; 5147,917;82,71921
1051,91; 4634,504;  652,500; 5424,917;83,43791
1052,45; 4455,104;  613,500; 5375,917;80,66502
1052,99; 3962,604;  130,500; 4852,917;81,14710
1053,54; 4185,604;  485,500; 5030,917;81,40297
1054,08; 3581,904; -235,500; 4529,917;80,10641
1054,62; 4312,404;  602,500; 5056,917;83,28598
1055,17; 4518,004;  869,500; 5213,917;83,98146
1055,71; 4208,104;  523,500; 4802,917;86,10062
1056,25; 6922,804; 3447,500; 7427,917;87,31006
1056,80; 4453,004;  840,500; 5120,917;84,39610
1057,34; 3203,104; -230,500; 3960,917;81,91990
1057,88; 3564,704;  277,500; 4402,917;79,68175
1058,43; 4041,804;  754,500; 4727,917;82,73243
1058,97; 3721,804;  434,500; 4429,917;82,27688
1059,51; 3832,904;  692,500; 4530,917;81,81509
1060,06; 4441,304; 1251,500; 5050,917;83,95511
1060,60; 3332,004;  323,500; 4083,917;80,00454
1061,14; 3255,104;  317,500; 3825,917;83,73020
1061,68; 3428,104;  469,500; 4138,917;80,62874
1062,23; 5602,204; 2776,500; 6085,917;85,38376
1062,77; 3482,904;  590,500; 4075,917;82,98589
1063,31; 3436,504;  578,500; 3891,917;86,25550
1063,85; 3825,404;  923,500; 4246,917;87,31689
1064,40; 2960,804;  167,500; 3409,917;86,14883
1064,94; 3025,704;  170,500; 3460,917;86,77333
1065,48; 3128,504;  405,500; 3521,917;87,37612
1066,02; 3640,004;  993,500; 3901,917;90,99467
1066,57; 2885,004;  256,500; 3323,917;85,69113
1067,11; 2848,804;  128,500; 3256,917;86,95466
1067,65; 3100,804;  603,500; 3656,917;81,78720
1068,19; 3097,404;  553,500; 3704,917;80,72255
1068,74; 2713,004;  129,500; 3310,917;81,20609
1069,28; 4452,604; 2038,500; 4769,917;88,38286
1069,82; 2968,904;  538,500; 3522,917;81,43648
1070,36; 2563,604;  186,500; 3132,917;80,67780
1070,90; 6268,104; 3915,500; 6550,917;89,26877
1071,45; 2723,404;  305,500; 3191,917;83,76836
1071,99; 2946,504;  689,500; 3410,917;82,93490
1072,53; 2751,804;  401,500; 3237,917;82,86174
1073,07; 2746,804;  485,500; 3180,917;83,89442
1073,61; 2417,404;  302,500; 2979,917;78,99047
1074,15; 2758,804;  631,500; 3257,917;80,99645
1074,70; 2832,204;  719,500; 3301,917;81,81112
1075,24; 2476,204;  427,500; 2806,917;86,10110
1075,78; 2256,404;   83,500; 2608,917;86,04141
1076,32; 2642,304;  513,500; 2969,917;86,66299
1076,86; 2419,004;  308,500; 2812,917;84,27128
1077,40; 3525,504; 1486,500; 3784,917;88,71342
1077,94; 3195,204; 1162,500; 3451,917;88,78698
1078,49; 1981,704;  -65,500; 2424,917;82,20328
1079,03; 2161,104;  213,500; 2642,917;80,16756
1079,57; 2710,204;  734,500; 3070,917;84,56129
1080,11; 2976,204; 1053,500; 3216,917;88,87350
1080,65; 3093,804; 1349,500; 3445,917;83,20408
1081,19; 4406,604; 2629,500; 4670,917;87,05250
1081,73; 2103,104;  355,500; 2549,917;79,63867
1082,27; 2017,604;  223,500; 2393,917;82,66173
1082,81; 1747,104;  -54,500; 2048,917;85,65132
1083,35; 2053,304;  319,500; 2482,917;80,14194
1083,89; 2227,104;  583,500; 2709,917;77,29455
1084,44; 3598,304; 1974,500; 3676,917;95,38230
1084,98; 2230,004;  644,500; 2336,917;93,68284
1085,52; 1846,304;  335,500; 2118,917;84,71403
1086,06; 1533,804;  -33,500; 1839,917;83,66021
1086,60; 1868,004;  294,500; 2198,917;82,62394
1087,14; 1537,204;    5,500; 1822,917;84,27920
1087,68; 2163,804;  680,500; 2430,917;84,74006
1088,22; 1911,904;  498,500; 2239,917;81,16404
1088,76; 2874,604; 1419,500; 3069,917;88,16587
1089,30; 1454,304;  -38,500; 1783,917;81,91344
1089,84; 1856,904;  343,500; 2153,917;83,59424
1090,38; 3028,704; 1594,500; 3315,917;83,31533
1090,92; 1696,204;  339,500; 1913,917;86,17187
1091,46; 2047,204;  648,500; 2362,917;81,58484
1092,00; 2055,304;  763,500; 2243,917;87,25950
1092,54; 1561,304;  336,500; 1888,917;78,89662
1093,08; 2431,204; 1051,500; 2499,917;95,25602
1093,62; 1670,504;  314,500; 1906,917;85,15386
1094,16; 1160,804; -109,500; 1495,917;79,12614
1094,70; 1215,104; -163,500; 1489,917;83,37911
1095,24; 1696,404;  424,500; 1944,917;83,65498
1095,78; 1669,704;  392,500; 1751,917;93,95238
1096,32; 1563,004;  147,500; 1755,917;88,00606
1096,86; 1768,704;  459,500; 1897,917;91,01704
1097,40; 1898,204;  632,500; 2092,917;86,66733
1097,93; 3036,704; 1864,500; 3140,917;91,83553
1098,47; 1929,004;  670,500; 2089,917;88,66347
1099,01; 2196,504; 1066,500; 2359,917;87,36582
1099,55; 1854,004;  694,500; 2050,917;85,48288
1100,09; 1169,504;   -7,500; 1422,917;82,28401

