#date: 15.10.2020	time: 13:36:21
#t (s)	f (Hz)	A1 (V)	A2 (V)	phase (deg)
23.34	1.0000E+1	1.5247	Inf	+Inf
23.59	5.1000E+2	2.3721	Inf	+Inf
23.80	1.0100E+3	2.3698	Inf	+Inf
24.02	1.5100E+3	2.3848	Inf	+Inf
24.22	2.0100E+3	2.4037	Inf	+Inf
24.42	2.5100E+3	2.4286	Inf	+Inf
24.63	3.0100E+3	2.4592	Inf	+Inf
24.83	3.5100E+3	2.4920	Inf	+Inf
25.03	4.0100E+3	2.5279	Inf	+Inf
25.23	4.5100E+3	2.5631	Inf	+Inf
25.43	5.0100E+3	2.6007	Inf	+Inf
25.65	5.5100E+3	2.6399	Inf	+Inf
25.94	6.0100E+3	2.6768	0.2164	+157.3
26.21	6.5100E+3	2.7167	Inf	+Inf
26.43	7.0100E+3	2.7583	Inf	+Inf
26.66	7.5100E+3	2.8016	Inf	+Inf
26.88	8.0100E+3	2.8467	0.2655	+163.1
27.13	8.5100E+3	2.8888	0.2742	+164.3
27.34	9.0100E+3	2.9304	0.2792	+170.9
27.56	9.5100E+3	2.9703	0.2861	+169.0
27.79	1.0010E+4	3.0076	0.2911	+174.8
28.01	1.0510E+4	3.0451	0.2963	+176.2
28.24	1.1010E+4	3.0765	0.3002	+177.6
28.46	1.1510E+4	3.1089	0.3038	+178.2
28.69	1.2010E+4	3.1373	0.3070	-178.2
28.93	1.2510E+4	3.1708	0.3095	-176.9
29.14	1.3010E+4	3.2067	0.3116	-173.9
29.36	1.3510E+4	3.2369	0.3144	-173.7
29.59	1.4010E+4	3.2687	0.3160	-171.8
29.82	1.4510E+4	3.2998	0.3166	-169.9
30.02	1.5010E+4	3.3281	0.3189	-171.5
30.26	1.5510E+4	3.3554	0.3191	-171.4
30.47	1.6010E+4	3.3856	0.3197	-163.3
30.67	1.6510E+4	3.4081	0.3199	-165.3
30.86	1.7010E+4	3.4354	0.3195	-164.8
31.07	1.7510E+4	3.4614	0.3189	-163.1
31.29	1.8010E+4	3.4777	0.3184	-160.9
31.49	1.8510E+4	3.4924	0.3172	-156.4
31.70	1.9010E+4	3.5145	0.3165	-158.7
31.90	1.9510E+4	3.5345	0.3156	-156.4
32.12	2.0010E+4	3.5649	0.3152	-156.1
32.34	2.0510E+4	3.5859	0.3148	-155.5
32.55	2.1010E+4	3.6094	0.3136	-153.1
32.75	2.1510E+4	3.6323	0.3135	-153.2
32.93	2.2010E+4	3.6536	0.3112	-150.5
33.15	2.2510E+4	3.6716	0.3109	-148.4
33.35	2.3010E+4	3.6914	0.3090	-151.0
33.58	2.3510E+4	3.7109	0.3085	-147.6
33.78	2.4010E+4	3.7298	0.3060	-146.5
34.00	2.4510E+4	3.7441	0.3051	-145.3
34.18	2.5010E+4	3.7590	0.3030	-144.6
34.40	2.5510E+4	3.7792	0.3017	-143.8
34.60	2.6010E+4	3.7926	0.3003	-143.8
34.80	2.6510E+4	3.8072	0.2979	-141.9
35.01	2.7010E+4	3.8204	0.2973	-143.6
35.20	2.7510E+4	3.8362	0.2949	-137.6
35.41	2.8010E+4	3.8526	0.2931	-138.8
35.61	2.8510E+4	3.8672	0.2914	-140.9
35.84	2.9010E+4	3.8840	0.2887	-142.5
36.04	2.9510E+4	3.8960	0.2876	-140.1
36.26	3.0010E+4	3.9117	0.2861	-139.0
36.46	3.0510E+4	3.9210	0.2835	-139.3
36.69	3.1010E+4	3.9355	0.2822	-133.9
36.87	3.1510E+4	3.9459	0.2796	-137.3
37.11	3.2010E+4	3.9602	0.2774	-134.6
37.32	3.2510E+4	3.9690	0.2757	-134.9
37.52	3.3010E+4	3.9817	0.2737	-136.7
37.76	3.3510E+4	3.9974	0.2718	-135.2
37.97	3.4010E+4	4.0065	0.2706	-137.2
38.21	3.4510E+4	4.0175	0.2687	-133.1
38.42	3.5010E+4	4.0260	0.2673	-133.2
38.62	3.5510E+4	4.0373	0.2653	-133.8
38.85	3.6010E+4	4.0521	0.2638	-133.0
39.05	3.6510E+4	4.0578	0.2622	-129.6
39.26	3.7010E+4	4.0674	0.2601	-131.2
39.49	3.7510E+4	4.0799	0.2596	-132.4
39.67	3.8010E+4	4.0874	0.2573	-132.8
39.89	3.8510E+4	4.1004	0.2560	-131.4
40.10	3.9010E+4	4.1069	0.2533	-131.3
40.30	3.9510E+4	4.1144	0.2508	-129.1
40.52	4.0010E+4	4.1205	0.2491	-128.7
40.73	4.0510E+4	4.1312	0.2471	-127.8
40.93	4.1010E+4	4.1394	0.2451	-126.9
41.15	4.1510E+4	4.1412	0.2437	-125.7
41.37	4.2010E+4	4.1527	0.2415	-128.0
41.58	4.2510E+4	4.1626	0.2389	-128.6
41.80	4.3010E+4	4.1653	0.2367	-128.1
42.02	4.3510E+4	4.1724	0.2353	-126.9
42.25	4.4010E+4	4.1814	0.2336	-121.5
42.46	4.4510E+4	4.1879	0.2315	-130.4
42.66	4.5010E+4	4.1927	0.2312	-128.6
42.86	4.5510E+4	4.1963	0.2289	-124.9
43.08	4.6010E+4	4.2060	0.2277	-124.7
43.30	4.6510E+4	4.2100	0.2255	-126.7
43.51	4.7010E+4	4.2163	0.2240	-126.0
43.73	4.7510E+4	4.2220	0.2230	-122.2
43.91	4.8010E+4	4.2257	0.2208	-127.0
44.13	4.8510E+4	4.2375	0.2202	-124.8
44.33	4.9010E+4	4.2378	0.2191	-124.1
44.54	4.9510E+4	4.2435	0.2177	-122.1
44.76	5.0010E+4	4.2465	0.2168	-121.3
44.96	5.0510E+4	4.2516	0.2150	-125.4
45.17	5.1010E+4	4.2568	0.2132	-126.2
45.37	5.1510E+4	4.2620	0.2118	-123.2
45.61	5.2010E+4	4.2670	0.2106	-120.7
45.82	5.2510E+4	4.2691	0.2096	-119.5
46.02	5.3010E+4	4.2743	0.2083	-122.1
46.24	5.3510E+4	4.2776	0.2067	-120.7
46.44	5.4010E+4	4.2822	0.2059	-122.0
46.62	5.4510E+4	4.2862	0.2052	-122.4
46.84	5.5010E+4	4.2887	0.2035	-120.0
47.04	5.5510E+4	4.2945	0.2019	-120.1
47.25	5.6010E+4	4.2961	0.2006	-119.6
47.45	5.6510E+4	4.2991	0.1989	-118.4
47.65	5.7010E+4	4.3037	0.1984	-120.2
47.85	5.7510E+4	4.3070	0.1967	-123.6
48.05	5.8010E+4	4.3122	0.1957	-118.4
48.25	5.8510E+4	4.3158	0.1945	-121.0
48.48	5.9010E+4	4.3150	0.1923	-118.3
48.68	5.9510E+4	4.3217	0.1918	-118.1
48.87	6.0010E+4	4.3201	0.1901	-117.8
49.07	6.0510E+4	4.3244	0.1908	-113.0
49.28	6.1010E+4	4.3274	0.1888	-122.2
49.48	6.1510E+4	4.3350	0.1887	-116.0
49.66	6.2010E+4	4.3316	0.1873	-117.8
49.88	6.2510E+4	4.3388	0.1853	-115.8
50.08	6.3010E+4	4.3382	0.1853	-113.0
50.26	6.3510E+4	4.3432	0.1839	-115.6
50.48	6.4010E+4	4.3486	0.1833	-117.2
50.66	6.4510E+4	4.3484	0.1828	-114.9
50.88	6.5010E+4	4.3520	0.1812	-119.3
51.08	6.5510E+4	4.3539	0.1801	-118.1
51.30	6.6010E+4	4.3556	0.1787	-118.7
51.49	6.6510E+4	4.3638	0.1778	-115.7
51.68	6.7010E+4	4.3600	0.1767	-115.8
51.88	6.7510E+4	4.3633	0.1751	-114.7
52.08	6.8010E+4	4.3685	0.1746	-113.9
52.28	6.8510E+4	4.3678	0.1729	-116.4
52.48	6.9010E+4	4.3698	0.1723	-108.7
52.66	6.9510E+4	4.3715	0.1714	-117.1
52.89	7.0010E+4	4.3685	0.1695	-109.2
53.11	7.0510E+4	4.3764	0.1688	-110.0
53.34	7.1010E+4	4.3793	0.1680	-114.6
53.52	7.1510E+4	4.3759	0.1671	-114.6
53.72	7.2010E+4	4.3832	0.1655	-114.6
53.94	7.2510E+4	4.3855	0.1652	-120.4
54.12	7.3010E+4	4.3863	0.1640	-116.1
54.32	7.3510E+4	4.3886	0.1628	-113.8
54.52	7.4010E+4	4.3907	0.1622	-109.0
54.70	7.4510E+4	4.3925	0.1611	-109.3
54.90	7.5010E+4	4.3921	0.1598	-108.2
55.11	7.5510E+4	4.3948	0.1600	-116.4
55.29	7.6010E+4	4.3940	0.1589	-115.1
55.49	7.6510E+4	4.3961	0.1575	-108.3
55.70	7.7010E+4	4.4006	0.1572	-112.7
55.90	7.7510E+4	4.3991	0.1562	-109.2
56.10	7.8010E+4	4.3991	0.1563	-109.4
56.30	7.8510E+4	4.4020	0.1555	-107.6
56.52	7.9010E+4	4.4023	0.1549	-112.0
56.70	7.9510E+4	4.4036	0.1540	-115.6
56.90	8.0010E+4	4.4047	0.1526	-109.4
57.10	8.0510E+4	4.4092	0.1522	-111.0
57.28	8.1010E+4	4.4075	0.1518	-113.6
57.48	8.1510E+4	4.4106	0.1505	-113.3
57.68	8.2010E+4	4.4115	0.1501	-111.8
57.86	8.2510E+4	4.4150	0.1500	-104.7
58.05	8.3010E+4	4.4159	0.1501	-115.4
58.23	8.3510E+4	4.4193	0.1483	-108.7
58.43	8.4010E+4	4.4193	0.1477	-109.9
58.63	8.4510E+4	4.4191	0.1469	-111.3
58.81	8.5010E+4	4.4201	0.1463	-110.1
59.01	8.5510E+4	4.4228	0.1452	-110.2
59.20	8.6010E+4	4.4268	0.1454	-114.4
59.39	8.6510E+4	4.4259	0.1450	-109.8
59.59	8.7010E+4	4.4246	0.1443	-113.5
59.81	8.7510E+4	4.4263	0.1432	-108.2
60.01	8.8010E+4	4.4288	0.1431	-108.5
60.21	8.8510E+4	4.4235	0.1420	-109.6
60.44	8.9010E+4	4.4290	0.1420	-110.5
60.66	8.9510E+4	4.4307	0.1411	-110.1
60.84	9.0010E+4	4.4297	0.1404	-111.3
61.04	9.0510E+4	4.4290	0.1396	-110.7
61.23	9.1010E+4	4.4307	0.1396	-103.5
61.41	9.1510E+4	4.4331	0.1383	-112.0
61.61	9.2010E+4	4.4353	0.1376	-104.3
61.81	9.2510E+4	4.4347	0.1375	-109.7
61.99	9.3010E+4	4.4364	0.1368	-104.0
62.17	9.3510E+4	4.4419	0.1367	-111.7
62.35	9.4010E+4	4.4442	0.1356	-106.3
62.55	9.4510E+4	4.4443	0.1348	-108.9
62.75	9.5010E+4	4.4430	0.1361	-104.2
62.95	9.5510E+4	4.4429	0.1342	-109.6
63.15	9.6010E+4	4.4413	0.1340	-108.1
63.34	9.6510E+4	4.4454	0.1331	-103.6
63.53	9.7010E+4	4.4460	0.1324	-109.9
63.72	9.7510E+4	4.4498	0.1323	-108.5
63.90	9.8010E+4	4.4477	0.1315	-113.0
64.10	9.8510E+4	4.4488	0.1305	-106.2
64.30	9.9010E+4	4.4501	0.1301	-100.5
64.48	9.9510E+4	4.4477	0.1298	-109.1
64.67	1.0001E+5	4.4507	0.1292	-104.9
64.87	1.0051E+5	4.4580	0.1290	-108.1
65.07	1.0101E+5	4.4528	0.1299	-109.9
65.28	1.0151E+5	4.4570	0.1279	-109.5
65.52	1.0201E+5	4.4534	0.1285	-113.3
65.75	1.0251E+5	4.4563	0.1265	-110.1
65.96	1.0301E+5	4.4535	0.1263	-108.1
66.16	1.0351E+5	4.4610	0.1254	-107.0
66.36	1.0401E+5	4.4596	0.1250	-107.7
66.56	1.0451E+5	4.4560	0.1248	-105.6
66.75	1.0501E+5	4.4594	0.1256	-106.9
66.94	1.0551E+5	4.4601	0.1237	-104.3
67.14	1.0601E+5	4.4610	0.1233	-107.1
67.33	1.0651E+5	4.4618	0.1230	-108.6
67.51	1.0701E+5	4.4624	0.1224	-106.1
67.69	1.0751E+5	4.4635	0.1215	-108.1
67.89	1.0801E+5	4.4624	0.1218	-105.2
68.08	1.0851E+5	4.4635	0.1212	-104.1
68.26	1.0901E+5	4.4678	0.1204	-106.5
68.46	1.0951E+5	4.4642	0.1200	-106.0
68.64	1.1001E+5	4.4664	0.1201	-105.8
68.82	1.1051E+5	4.4668	0.1191	-106.3
69.02	1.1101E+5	4.4672	0.1186	-106.5
69.21	1.1151E+5	4.4667	0.1189	-103.5
69.39	1.1201E+5	4.4703	0.1186	-98.8
69.57	1.1251E+5	4.4685	0.1168	-107.4
69.77	1.1301E+5	4.4733	0.1178	-102.5
69.95	1.1351E+5	4.4719	0.1166	-104.7
70.17	1.1401E+5	4.4722	0.1166	-105.3
70.35	1.1451E+5	4.4727	0.1153	-106.4
70.55	1.1501E+5	4.4723	0.1163	-99.7
70.75	1.1551E+5	4.4733	0.1150	-106.7
70.95	1.1601E+5	4.4792	0.1155	-107.2
71.15	1.1651E+5	4.4733	0.1145	-104.2
71.37	1.1701E+5	4.4787	0.1145	-101.3
71.55	1.1751E+5	4.4751	0.1133	-103.5
71.75	1.1801E+5	4.4780	0.1131	-104.3
71.93	1.1851E+5	4.4780	0.1134	-102.0
72.12	1.1901E+5	4.4777	0.1131	-108.8
72.30	1.1951E+5	4.4758	0.1119	-100.7
72.50	1.2001E+5	4.4842	0.1122	-105.5
72.70	1.2051E+5	4.4780	0.1115	-107.6
72.92	1.2101E+5	4.4763	0.1118	-107.9
73.10	1.2151E+5	4.4821	0.1113	-107.1
73.28	1.2201E+5	4.4829	0.1114	-101.1
73.46	1.2251E+5	4.4836	0.1109	-106.6
73.70	1.2301E+5	4.4823	0.1113	-98.5
73.92	1.2351E+5	4.4805	0.1101	-104.4
74.11	1.2401E+5	4.4846	0.1099	-102.2
74.33	1.2451E+5	4.4809	0.1088	-102.3
74.56	1.2501E+5	4.4860	0.1097	-108.0
74.80	1.2551E+5	4.4768	0.1089	-104.4
75.01	1.2601E+5	4.4832	0.1091	-102.2
75.23	1.2651E+5	4.4838	0.1080	-102.3
75.44	1.2701E+5	4.4863	0.1083	-103.4
75.64	1.2751E+5	4.4835	0.1083	-95.8
75.83	1.2801E+5	4.4866	0.1076	-102.7
76.04	1.2851E+5	4.4852	0.1075	-115.5
76.22	1.2901E+5	4.4860	0.1066	-103.2
76.42	1.2951E+5	4.4869	0.1059	-105.7
76.61	1.3001E+5	4.4852	0.1067	-102.8
76.79	1.3051E+5	4.4887	0.1058	-103.9
76.97	1.3101E+5	4.4897	0.1055	-108.1
77.16	1.3151E+5	4.4920	0.1059	-108.0
77.34	1.3201E+5	4.4910	0.1052	-103.1
77.54	1.3251E+5	4.4932	0.1053	-105.4
77.72	1.3301E+5	4.4896	0.1053	-101.8
77.90	1.3351E+5	4.4894	0.1038	-102.7
78.10	1.3401E+5	4.4900	0.1038	-102.9
78.29	1.3451E+5	4.4848	0.1039	-105.3
78.47	1.3501E+5	4.4894	0.1034	-99.4
78.65	1.3551E+5	4.4910	0.1042	-94.3
78.85	1.3601E+5	4.4958	0.1030	-101.6
79.05	1.3651E+5	4.4949	0.1026	-102.3
79.24	1.3701E+5	4.4948	0.1024	-104.4
79.44	1.3751E+5	4.4993	0.1016	-101.0
79.62	1.3801E+5	4.4921	0.1020	-106.7
79.80	1.3851E+5	4.4958	0.1021	-94.8
79.98	1.3901E+5	4.4962	0.1014	-105.9
80.17	1.3951E+5	4.4948	0.1011	-106.2
80.37	1.4001E+5	4.4972	0.1012	-107.9
80.57	1.4051E+5	4.4954	0.1008	-108.1
80.77	1.4101E+5	4.4949	0.1002	-100.4
80.95	1.4151E+5	4.4965	0.0995	-100.9
81.15	1.4201E+5	4.4985	0.0993	-100.3
81.33	1.4251E+5	4.5013	0.0997	-102.1
81.53	1.4301E+5	4.4966	0.0993	-104.2
81.73	1.4351E+5	4.4986	0.0992	-98.8
81.91	1.4401E+5	4.5030	0.0987	-107.0
82.10	1.4451E+5	4.5027	0.0984	-100.0
82.28	1.4501E+5	4.5002	0.0980	-101.3
82.48	1.4551E+5	4.5029	0.0982	-104.7
82.66	1.4601E+5	4.5006	0.0981	-98.5
82.84	1.4651E+5	4.5046	0.0975	-106.8
83.03	1.4701E+5	4.5050	0.0982	-97.5
83.21	1.4751E+5	4.5030	0.0979	-98.6
83.41	1.4801E+5	4.5030	0.0989	-116.7
83.63	1.4851E+5	4.5029	0.0971	-103.1
83.84	1.4901E+5	4.5051	0.0971	-106.3
84.03	1.4951E+5	4.5085	0.0968	-109.8
84.22	1.5001E+5	4.5000	0.0973	-98.1
84.42	1.5051E+5	4.5084	0.0957	-101.5
84.62	1.5101E+5	4.5031	0.0965	-107.5
84.81	1.5151E+5	4.5031	0.0957	-101.7
84.99	1.5201E+5	4.5040	0.0958	-102.8
85.17	1.5251E+5	4.5023	0.0953	-101.5
85.37	1.5301E+5	4.5072	0.0962	-102.0
85.57	1.5351E+5	4.5082	0.0956	-101.7
85.75	1.5401E+5	4.5091	0.0952	-100.3
85.97	1.5451E+5	4.5067	0.0959	-98.0
86.17	1.5501E+5	4.5012	0.0944	-99.9
86.37	1.5551E+5	4.5031	0.0941	-106.1
86.55	1.5601E+5	4.5102	0.0946	-100.4
86.74	1.5651E+5	4.5119	0.0952	-100.1
86.94	1.5701E+5	4.5085	0.0953	-113.0
87.14	1.5751E+5	4.5054	0.0931	-104.6
87.34	1.5801E+5	4.5094	0.0969	-94.0
87.53	1.5851E+5	4.5089	0.0928	-105.3
87.73	1.5901E+5	4.5063	0.0961	-102.2
87.93	1.5951E+5	4.5101	0.0931	-105.1
88.13	1.6001E+5	4.5088	0.0925	-99.8
88.33	1.6051E+5	4.5058	0.0935	-106.1
88.55	1.6101E+5	4.5109	0.0928	-106.4
88.73	1.6151E+5	4.5166	0.0927	-99.7
88.93	1.6201E+5	4.5142	0.0925	-102.4
89.13	1.6251E+5	4.5099	0.0915	-104.2
89.33	1.6301E+5	4.5130	0.0915	-102.0
89.53	1.6351E+5	4.5128	0.0926	-99.6
89.71	1.6401E+5	4.5113	0.0936	-92.4
89.95	1.6451E+5	4.5153	0.0911	-103.2
90.18	1.6501E+5	4.5113	0.0909	-106.9
90.38	1.6551E+5	4.5129	0.0910	-109.6
90.58	1.6601E+5	4.5170	0.0910	-102.6
90.76	1.6651E+5	4.5128	0.0908	-103.9
90.94	1.6701E+5	4.5128	0.0908	-110.1
91.13	1.6751E+5	4.5142	0.0908	-106.6
91.31	1.6801E+5	4.5198	0.0905	-99.7
91.49	1.6851E+5	4.5128	0.0901	-102.4
91.67	1.6901E+5	4.5156	0.0903	-112.4
91.86	1.6951E+5	4.5128	0.0904	-104.9
92.04	1.7001E+5	4.5198	0.0901	-103.8
92.22	1.7051E+5	4.5170	0.0899	-103.5
92.41	1.7101E+5	4.5198	0.0900	-100.0
92.59	1.7151E+5	4.5156	0.0909	-94.4
92.77	1.7201E+5	4.5184	0.0898	-101.2
92.99	1.7251E+5	4.5128	0.0889	-104.2
93.17	1.7301E+5	4.5227	0.0886	-103.0
93.36	1.7351E+5	4.5170	0.0884	-106.9
93.55	1.7401E+5	4.5241	0.0890	-110.1
93.75	1.7451E+5	4.5142	0.0879	-101.7
93.96	1.7501E+5	4.5198	0.0886	-107.4
94.15	1.7551E+5	4.5198	0.0888	-110.3
94.34	1.7601E+5	4.5184	0.0890	-98.6
94.52	1.7651E+5	4.5184	0.0886	-91.0
94.70	1.7701E+5	4.5184	0.0881	-106.7
94.90	1.7751E+5	4.5198	0.0880	-103.0
95.09	1.7801E+5	4.5184	0.0887	-98.6
95.28	1.7851E+5	4.5212	0.0867	-100.8
95.48	1.7901E+5	4.5227	0.0878	-102.4
95.68	1.7951E+5	4.5170	0.0881	-101.5
95.87	1.8001E+5	4.5212	0.0870	-104.6
96.05	1.8051E+5	4.5241	0.0878	-102.1
96.23	1.8101E+5	4.5198	0.0870	-100.2
96.42	1.8151E+5	4.5212	0.0865	-102.4
96.61	1.8201E+5	4.5184	0.0861	-95.6
96.80	1.8251E+5	4.5227	0.0861	-106.9
96.98	1.8301E+5	4.5255	0.0879	-95.0
97.18	1.8351E+5	4.5227	0.0865	-105.6
97.38	1.8401E+5	4.5241	0.0869	-98.1
97.56	1.8451E+5	4.5241	0.0866	-102.5
97.75	1.8501E+5	4.5255	0.0860	-104.4
97.93	1.8551E+5	4.5198	0.0848	+253.1
98.13	1.8601E+5	4.5283	0.0861	-109.8
98.33	1.8651E+5	4.5255	0.0882	-116.4
98.53	1.8701E+5	4.5283	0.0848	-109.1
98.74	1.8751E+5	4.5198	0.0848	-114.5
98.93	1.8801E+5	4.5241	0.0851	-100.3
99.11	1.8851E+5	4.5297	0.0846	-100.6
99.29	1.8901E+5	4.5283	0.0844	-101.8
99.48	1.8951E+5	4.5241	0.0854	-107.1
99.66	1.9001E+5	4.5297	0.0825	-90.1
99.86	1.9051E+5	4.5269	0.0825	-107.9
100.04	1.9101E+5	4.5269	0.0846	-96.0
100.24	1.9151E+5	4.5283	0.0847	-109.0
100.42	1.9201E+5	4.5311	0.0847	-109.1
100.61	1.9251E+5	4.5212	0.0853	-98.3
100.81	1.9301E+5	4.5227	0.0854	-109.6
100.99	1.9351E+5	4.5283	0.0840	-105.8
101.19	1.9401E+5	4.5269	0.0833	-98.2
101.37	1.9451E+5	4.5255	0.0840	-110.4
101.56	1.9501E+5	4.5255	0.0830	-98.1
101.74	1.9551E+5	4.5283	0.0851	+250.6
101.94	1.9601E+5	4.5283	0.0838	-106.2
102.14	1.9651E+5	4.5241	0.0833	-99.8
102.32	1.9701E+5	4.5269	0.0836	-111.4
102.50	1.9751E+5	4.5255	0.0833	-99.0
102.69	1.9801E+5	4.5269	0.0833	-109.6
102.87	1.9851E+5	4.5283	0.0821	-101.5
103.07	1.9901E+5	4.5283	0.0835	-111.5
103.27	1.9951E+5	4.5241	0.0830	-98.0
103.45	2.0001E+5	4.5269	0.0831	-113.5
103.63	2.0051E+5	4.5297	0.0831	-97.2
103.82	2.0101E+5	4.5283	0.0828	-107.6
104.00	2.0151E+5	4.5311	0.0830	-108.9
104.18	2.0201E+5	4.5241	0.0838	-106.5
104.36	2.0251E+5	4.5269	0.0856	+268.6
104.56	2.0301E+5	4.5255	0.0831	-100.6
104.76	2.0351E+5	4.5269	0.0815	-102.3
104.97	2.0401E+5	4.5283	0.0819	-95.7
105.15	2.0451E+5	4.5326	0.0823	-106.4
105.33	2.0501E+5	4.5269	0.0823	-96.6
105.51	2.0551E+5	4.5340	0.0825	-97.2
105.70	2.0601E+5	4.5297	0.0823	-97.5
105.88	2.0651E+5	4.5354	0.0829	-129.8
106.10	2.0701E+5	4.5326	0.0820	-103.9
106.31	2.0751E+5	4.5283	0.0825	-104.8
106.50	2.0801E+5	4.5297	0.0814	-101.9
106.68	2.0851E+5	4.5340	0.0829	-115.0
106.88	2.0901E+5	4.5255	0.0817	-99.9
107.09	2.0951E+5	4.5297	0.0818	-105.7
107.28	2.1001E+5	4.5297	0.0820	-98.3
107.46	2.1051E+5	4.5297	0.0816	-102.2
107.64	2.1101E+5	4.5311	0.0827	-92.7
107.84	2.1151E+5	4.5297	0.0820	-101.4
108.04	2.1201E+5	4.5326	0.0820	-112.1
108.22	2.1251E+5	4.5340	0.0820	-96.9
108.41	2.1301E+5	4.5311	0.0812	-102.6
108.61	2.1351E+5	4.5283	0.0817	-90.0
108.81	2.1401E+5	4.5340	0.0807	-109.8
109.00	2.1451E+5	4.5326	0.0818	-102.2
109.20	2.1501E+5	4.5241	0.0807	-103.1
109.41	2.1551E+5	4.5326	0.0818	-92.0
109.60	2.1601E+5	4.5297	0.0806	-101.4
109.82	2.1651E+5	4.5326	0.0813	-108.4
110.00	2.1701E+5	4.5340	0.0814	-94.7
110.20	2.1751E+5	4.5311	0.0814	-101.9
110.39	2.1801E+5	4.5354	0.0823	-98.5
110.57	2.1851E+5	4.5326	0.0816	-88.4
110.75	2.1901E+5	4.5354	0.0812	-92.6
110.95	2.1951E+5	4.5311	0.0812	-108.5
111.13	2.2001E+5	4.5368	0.0808	-107.8
111.32	2.2051E+5	4.5326	0.0826	-111.5
111.52	2.2101E+5	4.5340	0.0816	-100.7
111.70	2.2151E+5	4.5382	0.0814	-98.4
111.88	2.2201E+5	4.5311	0.0809	-106.7
112.10	2.2251E+5	4.5354	0.0814	-102.7
112.30	2.2301E+5	4.5340	0.0816	-100.7
112.48	2.2351E+5	4.5311	0.0821	-91.7
112.66	2.2401E+5	4.5340	0.0813	-112.6
112.86	2.2451E+5	4.5354	0.0812	-120.3
113.05	2.2501E+5	4.5396	0.0823	-113.4
113.25	2.2551E+5	4.5326	0.0812	-97.1
113.45	2.2601E+5	4.5354	0.0808	-99.6
113.63	2.2651E+5	4.5311	0.0808	-93.5
113.81	2.2701E+5	4.5368	0.0818	-90.6
114.01	2.2751E+5	4.5368	0.0805	-99.6
114.21	2.2801E+5	4.5354	0.0804	-102.3
114.39	2.2851E+5	4.5382	0.0808	-105.3
114.58	2.2901E+5	4.5382	0.0811	-97.0
114.76	2.2951E+5	4.5368	0.0804	-95.6
114.94	2.3001E+5	4.5354	0.0804	-99.9
115.13	2.3051E+5	4.5340	0.0802	-104.7
115.31	2.3101E+5	4.5340	0.0818	-103.0
115.51	2.3151E+5	4.5396	0.0809	-102.9
115.71	2.3201E+5	4.5396	0.0809	-104.1
115.89	2.3251E+5	4.5368	0.0813	-119.7
116.07	2.3301E+5	4.5340	0.0800	-106.8
116.26	2.3351E+5	4.5410	0.0806	-108.8
116.46	2.3401E+5	4.5396	0.0813	-109.4
116.66	2.3451E+5	4.5382	0.0803	-110.6
116.84	2.3501E+5	4.5382	0.0815	-90.4
117.04	2.3551E+5	4.5368	0.0808	-108.1
117.24	2.3601E+5	4.5354	0.0827	-96.4
117.44	2.3651E+5	4.5311	0.0800	-112.0
117.64	2.3701E+5	4.5340	0.0822	-109.6
117.84	2.3751E+5	4.5326	0.0796	-104.5
118.04	2.3801E+5	4.5382	0.0814	-99.8
118.24	2.3851E+5	4.5368	0.0811	-98.0
118.44	2.3901E+5	4.5396	0.0808	-106.9
118.62	2.3951E+5	4.5382	0.0814	-118.0
118.82	2.4001E+5	4.5326	0.0814	-98.2
119.00	2.4051E+5	4.5340	0.0809	-108.1
119.20	2.4101E+5	4.5354	0.0797	+252.4
119.40	2.4151E+5	4.5368	0.0822	-117.8
119.60	2.4201E+5	4.5382	0.0823	+253.2
119.78	2.4251E+5	4.5354	0.0812	-104.4
119.98	2.4301E+5	4.5425	0.0818	-104.3
120.20	2.4351E+5	4.5354	0.0801	-105.6
120.41	2.4401E+5	4.5382	0.0807	-101.9
120.60	2.4451E+5	4.5354	0.0804	-107.6
120.78	2.4501E+5	4.5396	0.0801	-102.9
120.96	2.4551E+5	4.5382	0.0823	-113.2
121.16	2.4601E+5	4.5396	0.0820	-113.7
121.35	2.4651E+5	4.5368	0.0821	-106.3
121.53	2.4701E+5	4.5382	0.0800	-111.9
121.73	2.4751E+5	4.5368	0.0832	-112.9
121.93	2.4801E+5	4.5396	0.0816	-105.3
122.13	2.4851E+5	4.5396	0.0812	-101.5
122.33	2.4901E+5	4.5354	0.0817	-105.0
122.53	2.4951E+5	4.5382	0.0817	-107.2
122.71	2.5001E+5	4.5368	0.0836	-107.3
122.91	2.5051E+5	4.5439	0.0812	-106.4
123.12	2.5101E+5	4.5368	0.0845	-118.5
123.36	2.5151E+5	4.5396	0.0808	-108.0
123.56	2.5201E+5	4.5439	0.0812	-108.1
123.77	2.5251E+5	4.5354	0.0820	-109.5
124.01	2.5301E+5	4.5396	0.0824	-104.5
124.19	2.5351E+5	4.5382	0.0836	+251.6
124.39	2.5401E+5	4.5410	0.0803	-106.9
124.62	2.5451E+5	4.5467	0.0815	-111.9
124.82	2.5501E+5	4.5368	0.0804	-105.8
125.04	2.5551E+5	4.5410	0.0830	-112.5
125.25	2.5601E+5	4.5354	0.0807	-106.9
125.47	2.5651E+5	4.5382	0.0846	-110.8
125.69	2.5701E+5	4.5425	0.0834	-109.9
125.90	2.5751E+5	4.5368	0.0810	-109.0
126.14	2.5801E+5	4.5410	0.0833	-103.1
126.37	2.5851E+5	4.5410	0.0837	-117.9
126.55	2.5901E+5	4.5453	Inf	-462.7
126.73	2.5951E+5	4.5425	0.0837	-103.2
126.92	2.6001E+5	4.5382	0.0846	-107.9
127.13	2.6051E+5	4.5368	0.0824	-112.3
127.33	2.6101E+5	4.5425	0.0813	-109.1
127.57	2.6151E+5	4.5368	0.0832	-108.5
127.78	2.6201E+5	4.5425	0.0819	-106.0
128.00	2.6251E+5	4.5425	0.0824	-111.2
128.18	2.6301E+5	4.5439	0.0823	-105.7
128.36	2.6351E+5	4.5439	0.0826	-108.5
128.55	2.6401E+5	4.5410	0.0837	-100.4
128.75	2.6451E+5	4.5368	0.0832	-111.8
128.95	2.6501E+5	4.5453	0.0846	-111.6
129.18	2.6551E+5	4.5425	Inf	-470.1
129.36	2.6601E+5	4.5368	0.0844	-106.7
129.56	2.6651E+5	4.5410	0.0850	-113.2
129.76	2.6701E+5	4.5439	0.0822	-110.2
129.96	2.6751E+5	4.5425	0.0838	-100.7
130.16	2.6801E+5	4.5467	0.0838	-104.9
130.34	2.6851E+5	4.5425	0.0854	-107.2
130.54	2.6901E+5	4.5410	0.0854	-111.2
130.73	2.6951E+5	4.5439	0.0852	-114.4
130.91	2.7001E+5	4.5425	0.0842	-103.9
131.09	2.7051E+5	4.5396	0.0857	-108.2
131.31	2.7101E+5	4.5410	0.0846	-108.6
131.54	2.7151E+5	4.5439	0.0830	-108.0
131.74	2.7201E+5	4.5410	0.0839	-108.4
131.92	2.7251E+5	4.5453	0.0850	-110.3
132.12	2.7301E+5	4.5453	0.0847	-110.6
132.31	2.7351E+5	4.5453	0.0858	-106.6
132.50	2.7401E+5	4.5439	Inf	-101.2
132.69	2.7451E+5	4.5382	0.0841	-111.0
132.90	2.7501E+5	4.5439	0.0859	-105.6
133.12	2.7551E+5	4.5410	0.0851	-109.9
133.32	2.7601E+5	4.5354	Inf	-114.7
133.52	2.7651E+5	4.5439	0.0874	-106.5
133.75	2.7701E+5	4.5425	0.0887	-117.8
133.95	2.7751E+5	4.5439	0.0856	-104.9
134.15	2.7801E+5	4.5425	0.0852	-110.4
134.35	2.7851E+5	4.5439	0.0870	-104.9
134.55	2.7901E+5	4.5453	0.0895	+259.9
134.75	2.7951E+5	4.5453	0.0899	+239.0
134.95	2.8001E+5	4.5354	0.0880	-114.5
135.17	2.8051E+5	4.5410	0.0857	-108.4
135.38	2.8101E+5	4.5481	0.0873	-103.4
135.58	2.8151E+5	4.5453	0.0864	-107.5
135.78	2.8201E+5	4.5467	0.0865	-103.2
135.97	2.8251E+5	4.5368	0.0868	-108.0
136.16	2.8301E+5	4.5354	0.0881	-109.7
136.36	2.8351E+5	4.5453	0.0878	-111.5
136.56	2.8401E+5	4.5425	0.0873	-101.8
136.75	2.8451E+5	4.5439	0.0892	-105.3
136.95	2.8501E+5	4.5509	0.0877	-107.2
137.15	2.8551E+5	4.5382	0.0903	-107.5
137.36	2.8601E+5	4.5410	Inf	-100.1
137.56	2.8651E+5	4.5410	0.0883	-109.6
137.76	2.8701E+5	4.5439	0.0875	+257.7
137.94	2.8751E+5	4.5396	0.0837	-104.5
138.16	2.8801E+5	4.5425	0.0883	-108.9
138.38	2.8851E+5	4.5467	0.0886	-108.2
138.58	2.8901E+5	4.5467	0.0894	-109.0
138.76	2.8951E+5	4.5453	0.0910	-110.6
138.96	2.9001E+5	4.5439	0.0902	-111.3
139.14	2.9051E+5	4.5396	0.0910	+258.7
139.34	2.9101E+5	4.5340	0.0901	-107.0
139.52	2.9151E+5	4.5368	0.0908	-110.2
139.71	2.9201E+5	4.5354	0.0861	-102.3
139.91	2.9251E+5	4.5382	0.0924	+244.1
140.11	2.9301E+5	4.5453	0.0931	-119.5
140.34	2.9351E+5	4.5481	0.0892	-110.9
140.54	2.9401E+5	4.5439	0.0913	-109.1
140.74	2.9451E+5	4.5425	Inf	-101.7
140.92	2.9501E+5	4.5368	0.0933	-108.0
141.14	2.9551E+5	4.5467	0.0921	-112.8
141.35	2.9601E+5	4.5425	0.0927	-114.1
141.55	2.9651E+5	4.5495	0.0921	-118.0
141.75	2.9701E+5	4.5467	0.0937	-107.7
141.95	2.9751E+5	4.5410	0.0951	-111.0
142.15	2.9801E+5	4.5453	0.0930	-111.3
142.37	2.9851E+5	4.5410	0.0933	-107.0
142.55	2.9901E+5	4.5453	0.0945	+260.0
142.75	2.9951E+5	4.5453	0.0934	-106.2
142.95	3.0001E+5	4.5439	0.0936	-111.6
143.13	3.0051E+5	4.5396	0.0939	-117.8
143.33	3.0101E+5	4.5396	0.0961	-109.4
143.53	3.0151E+5	4.5467	0.0949	-108.2
143.76	3.0201E+5	4.5425	0.0953	-111.8
143.95	3.0251E+5	4.5467	0.0956	-110.4
144.15	3.0301E+5	4.5509	0.0937	-114.4
144.35	3.0351E+5	4.5410	0.0934	-109.2
144.53	3.0401E+5	4.5467	0.0964	-116.4
144.73	3.0451E+5	4.5524	0.0947	-115.6
144.93	3.0501E+5	4.5340	0.0952	-111.9
145.13	3.0551E+5	4.5410	0.0944	-115.6
145.33	3.0601E+5	4.5396	0.0954	-110.5
145.54	3.0651E+5	4.5410	0.0959	-107.5
145.76	3.0701E+5	4.5396	0.0969	+246.6
145.98	3.0751E+5	4.5439	0.0980	-118.0
146.18	3.0801E+5	4.5467	0.0976	-111.2
146.36	3.0851E+5	4.5425	0.0955	-116.8
146.56	3.0901E+5	4.5566	0.0988	-115.7
146.76	3.0951E+5	4.5524	0.0969	-114.0
146.96	3.1001E+5	4.5453	0.1029	-106.0
147.16	3.1051E+5	4.5495	0.0984	-110.1
147.36	3.1101E+5	4.5382	0.0966	-113.4
147.57	3.1151E+5	4.5410	0.1000	-113.5
147.81	3.1201E+5	4.5467	0.0963	-109.3
148.00	3.1251E+5	4.5509	0.0987	-105.7
148.21	3.1301E+5	4.5481	0.0990	-110.4
148.39	3.1351E+5	4.5410	0.0969	+253.9
148.59	3.1401E+5	4.5524	0.1020	-103.8
148.79	3.1451E+5	4.5495	0.1003	-107.9
148.99	3.1501E+5	4.5410	0.0982	-109.6
149.19	3.1551E+5	4.5467	0.1019	-109.4
149.39	3.1601E+5	4.5410	0.1005	-112.8
149.59	3.1651E+5	4.5453	0.1005	-113.6
149.77	3.1701E+5	4.5311	0.1044	-114.6
150.00	3.1751E+5	4.5467	0.1016	-113.3
150.22	3.1801E+5	4.5481	0.1027	-110.5
150.42	3.1851E+5	4.5481	0.1044	-112.0
150.62	3.1901E+5	4.5467	0.1012	-113.9
150.82	3.1951E+5	4.5439	0.1035	-113.0
151.02	3.2001E+5	4.5481	0.1031	-118.1
151.20	3.2051E+5	4.5481	0.1020	-108.2
151.40	3.2101E+5	4.5509	0.1045	-115.9
151.60	3.2151E+5	4.5425	0.1027	-108.4
151.80	3.2201E+5	4.5453	0.1050	-114.5
152.00	3.2251E+5	4.5439	0.1051	-113.1
152.18	3.2301E+5	4.5467	0.1044	-110.1
152.36	3.2351E+5	4.5509	0.1058	-115.0
152.56	3.2401E+5	4.5354	0.1124	-110.0
152.78	3.2451E+5	4.5481	0.1119	-109.5
152.98	3.2501E+5	4.5453	0.1051	-124.0
153.18	3.2551E+5	4.5425	0.1081	-109.8
153.38	3.2601E+5	4.5467	0.1081	-112.3
153.56	3.2651E+5	4.5481	0.1063	-114.7
153.76	3.2701E+5	4.5382	0.1110	-114.4
153.98	3.2751E+5	4.5509	0.1097	-112.2
154.19	3.2801E+5	4.5382	0.1165	-110.5
154.42	3.2851E+5	4.5467	0.1066	-109.0
154.66	3.2901E+5	4.5425	0.1087	-112.7
154.86	3.2951E+5	4.5425	0.1094	-115.4
155.04	3.3001E+5	4.5396	0.1100	-113.5
155.26	3.3051E+5	4.5453	0.1097	-112.7
155.46	3.3101E+5	4.5354	0.1102	-111.7
155.66	3.3151E+5	4.5481	0.1140	-117.8
155.89	3.3201E+5	4.5481	0.1120	-114.6
156.10	3.3251E+5	4.5382	0.1135	-114.6
156.34	3.3301E+5	4.5439	0.1129	-110.8
156.54	3.3351E+5	4.5495	0.1155	-114.1
156.74	3.3401E+5	4.5354	0.1181	-109.0
156.95	3.3451E+5	4.5524	0.1099	+251.2
157.19	3.3501E+5	4.5481	0.1148	-111.2
157.38	3.3551E+5	4.5509	0.1193	-112.3
157.59	3.3601E+5	4.5382	0.1174	-111.4
157.82	3.3651E+5	4.5467	0.1117	-114.3
158.03	3.3701E+5	4.5453	0.1159	-118.6
158.24	3.3751E+5	4.5467	0.1189	-113.3
158.45	3.3801E+5	4.5453	0.1193	-114.3
158.63	3.3851E+5	4.5354	0.1177	-116.2
158.87	3.3901E+5	4.5410	0.1179	-115.8
159.07	3.3951E+5	4.5481	0.1160	-114.0
159.27	3.4001E+5	4.5481	0.1219	-118.5
159.47	3.4051E+5	4.5481	0.1150	-110.8
159.66	3.4101E+5	4.5467	0.1150	-116.3
159.85	3.4151E+5	4.5524	0.1292	-108.9
160.05	3.4201E+5	4.5467	0.1241	-111.5
160.25	3.4251E+5	4.5509	0.1221	-112.1
160.44	3.4301E+5	4.5453	0.1181	-117.5
160.65	3.4351E+5	4.5396	0.1260	-116.4
160.86	3.4401E+5	4.5368	0.1386	+250.7
161.06	3.4451E+5	4.5481	0.1425	-108.9
161.28	3.4501E+5	4.5425	0.1298	-107.4
161.48	3.4551E+5	4.5382	0.1250	-114.4
161.69	3.4601E+5	4.5382	0.1221	-119.3
161.89	3.4651E+5	4.5509	0.1289	-112.5
162.12	3.4701E+5	4.5439	0.1349	-113.0
162.32	3.4751E+5	4.5425	0.1312	-108.4
162.52	3.4801E+5	4.5509	0.1440	+249.7
162.72	3.4851E+5	4.5382	0.1280	-111.8
162.94	3.4901E+5	4.5495	0.1266	-116.6
163.17	3.4951E+5	4.5354	0.1323	-116.0
163.39	3.5001E+5	4.5439	0.1295	-116.7
163.62	3.5051E+5	4.5396	0.1372	-116.3
163.84	3.5101E+5	4.5481	0.1397	+249.0
164.05	3.5151E+5	4.5524	0.1382	-118.5
164.25	3.5201E+5	4.5396	0.1341	-116.9
164.47	3.5251E+5	4.5396	0.1367	-114.7
164.67	3.5301E+5	4.5396	0.1345	-117.1
164.87	3.5351E+5	4.5453	0.1311	-118.4
165.09	3.5401E+5	4.5410	0.1402	-112.3
165.28	3.5451E+5	4.5354	0.1412	-116.2
165.50	3.5501E+5	4.5368	0.1391	-111.0
165.70	3.5551E+5	4.5410	0.1400	-114.1
165.93	3.5601E+5	4.5524	0.1364	-115.9
166.13	3.5651E+5	4.5439	0.1479	-113.9
166.33	3.5701E+5	4.5467	0.1427	-107.3
166.53	3.5751E+5	4.5481	0.1424	-112.9
166.72	3.5801E+5	4.5425	0.1500	-112.4
166.92	3.5851E+5	4.5467	0.1457	-115.6
167.12	3.5901E+5	4.5495	0.1535	-112.0
167.32	3.5951E+5	4.5453	0.1452	-117.6
167.51	3.6001E+5	4.5425	0.1457	-110.0
167.68	3.6051E+5	4.5425	0.1478	-114.9
167.88	3.6101E+5	4.5453	0.1524	-108.4
168.08	3.6151E+5	4.5326	0.1512	-113.1
168.29	3.6201E+5	4.5382	0.1430	-116.7
168.50	3.6251E+5	4.5481	0.1492	-111.7
168.71	3.6301E+5	4.5354	0.1512	-116.0
168.93	3.6351E+5	4.5453	0.1567	-117.1
169.14	3.6401E+5	4.5326	0.1482	-112.8
169.38	3.6451E+5	4.5368	0.1506	-121.1
169.58	3.6501E+5	4.5382	0.1521	-114.5
169.78	3.6551E+5	4.5425	0.1467	-113.7
169.99	3.6601E+5	4.5410	0.1489	-114.3
170.19	3.6651E+5	4.5425	0.1573	-114.8
170.39	3.6701E+5	4.5425	0.1607	-116.7
170.59	3.6751E+5	4.5326	0.1629	-115.5
170.81	3.6801E+5	4.5439	0.1694	-114.8
171.04	3.6851E+5	4.5410	0.1676	-112.0
171.24	3.6901E+5	4.5382	0.1661	-115.5
171.46	3.6951E+5	4.5382	0.1660	-115.7
171.64	3.7001E+5	4.5283	0.1561	-115.9
171.84	3.7051E+5	4.5297	0.1697	-113.9
172.04	3.7101E+5	4.5311	0.1654	-114.6
172.24	3.7151E+5	4.5368	0.1596	-115.4
172.44	3.7201E+5	4.5354	0.1673	-112.6
172.64	3.7251E+5	4.5297	0.1710	-111.3
172.84	3.7301E+5	4.5382	0.1722	-113.0
173.03	3.7351E+5	4.5382	0.1751	-109.9
173.24	3.7401E+5	4.5255	0.1767	-115.6
173.44	3.7451E+5	4.5311	0.1772	-114.1
173.62	3.7501E+5	4.5354	0.1780	-108.2
173.82	3.7551E+5	4.5326	0.1810	-113.8
174.02	3.7601E+5	4.5283	0.1748	-112.4
174.22	3.7651E+5	4.5241	0.1752	-111.9
174.40	3.7701E+5	4.5354	0.1828	-113.6
174.60	3.7751E+5	4.5297	0.1782	-117.2
174.80	3.7801E+5	4.5311	0.1855	-108.5
175.00	3.7851E+5	4.5311	0.1877	-110.1
175.20	3.7901E+5	4.5283	0.1822	-111.9
175.40	3.7951E+5	4.5311	0.1889	-110.1
175.60	3.8001E+5	4.5283	0.1980	-114.6
175.80	3.8051E+5	4.5297	0.1927	-113.5
176.00	3.8101E+5	4.5326	0.1879	-111.4
176.20	3.8151E+5	4.5326	0.1924	-111.4
176.40	3.8201E+5	4.5241	0.2028	-113.7
176.59	3.8251E+5	4.5326	0.1995	-111.7
176.79	3.8301E+5	4.5297	0.1937	-112.9
176.99	3.8351E+5	4.5297	0.2043	-108.4
177.19	3.8401E+5	4.5311	0.1973	-111.7
177.39	3.8451E+5	4.5283	0.2016	-113.9
177.59	3.8501E+5	4.5227	0.2113	-112.0
177.79	3.8551E+5	4.5269	0.2042	-108.1
177.99	3.8601E+5	4.5297	0.2206	-112.6
178.19	3.8651E+5	4.5269	0.2080	-110.9
178.39	3.8701E+5	4.5255	0.2156	-111.4
178.59	3.8751E+5	4.5212	0.2173	-112.3
178.79	3.8801E+5	4.5283	0.2092	-109.9
178.99	3.8851E+5	4.5311	0.2197	-104.8
179.19	3.8901E+5	4.5283	0.2213	-109.0
179.39	3.8951E+5	4.5255	0.2202	-110.8
179.57	3.9001E+5	4.5297	0.2239	-109.5
179.77	3.9051E+5	4.5326	0.2300	-106.1
179.99	3.9101E+5	4.5241	0.2323	-106.3
180.19	3.9151E+5	4.5227	0.2341	-113.2
180.39	3.9201E+5	4.5212	0.2240	-112.6
180.59	3.9251E+5	4.5269	0.2329	-109.9
180.79	3.9301E+5	4.5212	0.2364	-111.4
180.99	3.9351E+5	4.5283	0.2455	-110.5
181.19	3.9401E+5	4.5283	0.2519	-110.8
181.38	3.9451E+5	4.5283	0.2466	-107.3
181.59	3.9501E+5	4.5241	0.2454	-106.4
181.77	3.9551E+5	4.5212	0.2481	-105.1
181.97	3.9601E+5	4.5283	0.2548	-109.4
182.17	3.9651E+5	4.5255	0.2566	-106.4
182.37	3.9701E+5	4.5269	0.2557	-107.9
182.55	3.9751E+5	4.5269	0.2737	-107.5
182.75	3.9801E+5	4.5283	0.2630	-105.6
182.95	3.9851E+5	4.5255	0.2689	-106.9
183.15	3.9901E+5	4.5255	0.2776	-107.2
183.35	3.9951E+5	4.5227	0.2553	-106.4
183.55	4.0001E+5	4.5283	0.2853	-107.3
183.75	4.0051E+5	4.5255	0.2823	-104.9
183.95	4.0101E+5	4.5255	0.2833	-104.6
184.13	4.0151E+5	4.5227	0.2792	-106.1
184.33	4.0201E+5	4.5241	0.2952	-103.0
184.53	4.0251E+5	4.5269	0.3019	-102.6
184.73	4.0301E+5	4.5198	0.3109	-100.4
184.93	4.0351E+5	4.5212	0.2947	-103.4
185.13	4.0401E+5	4.5255	0.3001	-103.2
185.33	4.0451E+5	4.5297	0.3097	-103.1
185.53	4.0501E+5	4.5311	0.3142	-101.0
185.72	4.0551E+5	4.5269	0.3142	-101.1
185.91	4.0601E+5	4.5212	0.3155	-99.1
186.11	4.0651E+5	4.5283	0.3208	-101.4
186.31	4.0701E+5	4.5311	0.3271	-99.9
186.51	4.0751E+5	4.5269	0.3282	-97.4
186.69	4.0801E+5	4.5283	0.3378	-97.6
186.89	4.0851E+5	4.5255	0.3386	-99.5
187.09	4.0901E+5	4.5227	0.3486	-97.4
187.29	4.0951E+5	4.5241	0.3491	-99.0
187.47	4.1001E+5	4.5269	0.3418	-99.1
187.67	4.1051E+5	4.5297	0.3453	-96.9
187.87	4.1101E+5	4.5241	0.3564	-98.7
188.07	4.1151E+5	4.5297	0.3562	-95.6
188.25	4.1201E+5	4.5255	0.3683	-95.3
188.45	4.1251E+5	4.5283	0.3713	-95.7
188.65	4.1301E+5	4.5241	0.3875	-93.2
188.85	4.1351E+5	4.5255	0.3809	-91.1
189.05	4.1401E+5	4.5227	0.3794	-93.7
189.25	4.1451E+5	4.5241	0.3967	-92.0
189.45	4.1501E+5	4.5184	0.4100	-89.6
189.65	4.1551E+5	4.5283	0.4080	-91.7
189.85	4.1601E+5	4.5255	0.4204	-88.7
190.05	4.1651E+5	4.5311	0.4145	-87.1
190.25	4.1701E+5	4.5255	0.4179	-87.0
190.45	4.1751E+5	4.5269	0.4277	-85.8
190.65	4.1801E+5	4.5255	0.4255	-87.2
190.85	4.1851E+5	4.5269	0.4325	-88.0
191.05	4.1901E+5	4.5269	0.4472	-86.7
191.25	4.1951E+5	4.5283	0.4440	-83.3
191.45	4.2001E+5	4.5283	0.4505	-83.8
191.65	4.2051E+5	4.5283	0.4597	-81.0
191.85	4.2101E+5	4.5326	0.4667	-79.9
192.05	4.2151E+5	4.5311	0.4746	-80.0
192.25	4.2201E+5	4.5297	0.4760	-77.7
192.43	4.2251E+5	4.5283	0.4801	-79.1
192.64	4.2301E+5	4.5283	0.4822	-76.2
192.83	4.2351E+5	4.5269	0.4977	-73.1
193.03	4.2401E+5	4.5311	0.5029	-71.1
193.23	4.2451E+5	4.5269	0.5040	-73.5
193.41	4.2501E+5	4.5311	0.5183	-71.9
193.61	4.2551E+5	4.5283	0.5227	-71.4
193.81	4.2601E+5	4.5340	0.5163	-68.6
194.01	4.2651E+5	4.5283	0.5319	-66.3
194.21	4.2701E+5	4.5311	0.5209	-64.7
194.41	4.2751E+5	4.5269	0.5293	-66.7
194.61	4.2801E+5	4.5311	0.5278	-63.5
194.79	4.2851E+5	4.5297	0.5380	-62.1
194.99	4.2901E+5	4.5326	0.5380	-62.0
195.17	4.2951E+5	4.5255	0.5428	-59.2
195.37	4.3001E+5	4.5269	0.5490	-57.3
195.57	4.3051E+5	4.5283	0.5408	-58.4
195.77	4.3101E+5	4.5311	0.5394	-58.4
195.95	4.3151E+5	4.5340	0.5450	-55.8
196.15	4.3201E+5	4.5255	0.5575	-53.9
196.35	4.3251E+5	4.5311	0.5545	-51.2
196.55	4.3301E+5	4.5297	0.5515	-48.8
196.75	4.3351E+5	4.5340	0.5548	-49.0
196.95	4.3401E+5	4.5326	0.5428	-47.8
197.15	4.3451E+5	4.5326	0.5537	-46.7
197.35	4.3501E+5	4.5326	0.5532	-44.1
197.53	4.3551E+5	4.5297	0.5528	-42.4
197.73	4.3601E+5	4.5255	0.5368	-43.0
197.93	4.3651E+5	4.5326	0.5346	-40.3
198.13	4.3701E+5	4.5297	0.5241	-38.5
198.33	4.3751E+5	4.5326	0.5339	-37.4
198.53	4.3801E+5	4.5382	0.5183	-35.5
198.73	4.3851E+5	4.5326	0.5268	-38.2
198.93	4.3901E+5	4.5326	0.5349	-35.4
199.13	4.3951E+5	4.5241	0.5151	-34.6
199.33	4.4001E+5	4.5354	0.5170	-33.4
199.53	4.4051E+5	4.5368	0.5066	-30.3
199.73	4.4101E+5	4.5269	0.4988	-30.7
199.93	4.4151E+5	4.5396	0.4896	-27.9
200.13	4.4201E+5	4.5311	0.4830	-26.4
200.33	4.4251E+5	4.5311	0.4791	-26.8
200.53	4.4301E+5	4.5283	0.4699	-24.2
200.73	4.4351E+5	4.5382	0.4837	-23.1
200.93	4.4401E+5	4.5283	0.4702	-20.8
201.13	4.4451E+5	4.5311	0.4616	-20.4
201.33	4.4501E+5	4.5326	0.4552	-21.1
201.53	4.4551E+5	4.5326	0.4537	-19.3
201.72	4.4601E+5	4.5368	0.4459	-19.7
201.92	4.4651E+5	4.5354	0.4452	-17.6
202.12	4.4701E+5	4.5382	0.4295	-15.7
202.32	4.4751E+5	4.5326	0.4429	-15.6
202.52	4.4801E+5	4.5326	0.4251	-17.7
202.72	4.4851E+5	4.5340	0.4170	-14.9
202.92	4.4901E+5	4.5269	0.4120	-11.8
203.12	4.4951E+5	4.5297	0.4197	-11.6
203.32	4.5001E+5	4.5368	0.3950	-11.5
203.52	4.5051E+5	4.5382	0.4057	-10.4
203.72	4.5101E+5	4.5297	0.4038	-11.2
203.90	4.5151E+5	4.5396	0.3932	-13.1
204.10	4.5201E+5	4.5283	0.3903	-7.8
204.30	4.5251E+5	4.5396	0.3792	-5.9
204.50	4.5301E+5	4.5340	0.3753	-9.6
204.70	4.5351E+5	4.5368	0.3719	-9.2
204.90	4.5401E+5	4.5311	0.3637	-8.3
205.10	4.5451E+5	4.5354	0.3738	-3.7
205.30	4.5501E+5	4.5326	0.3582	-4.2
205.50	4.5551E+5	4.5368	0.3583	-4.4
205.68	4.5601E+5	4.5354	0.3446	-4.1
205.88	4.5651E+5	4.5354	0.3378	-2.7
206.08	4.5701E+5	4.5396	0.3350	-2.0
206.28	4.5751E+5	4.5326	0.3347	-2.8
206.47	4.5801E+5	4.5354	0.3293	-2.8
206.66	4.5851E+5	4.5368	0.3186	-0.7
206.88	4.5901E+5	4.5283	0.3216	-3.0
207.08	4.5951E+5	4.5340	0.3083	-0.1
207.28	4.6001E+5	4.5368	0.3146	-0.3
207.48	4.6051E+5	4.5368	0.3176	-1.1
207.68	4.6101E+5	4.5354	0.3093	-2.0
207.88	4.6151E+5	4.5269	0.3081	-0.4
208.06	4.6201E+5	4.5297	0.2937	+0.8
208.26	4.6251E+5	4.5340	0.2874	+2.7
208.46	4.6301E+5	4.5340	0.2955	+3.2
208.66	4.6351E+5	4.5368	0.2929	+2.1
208.84	4.6401E+5	4.5368	0.2913	+1.4
209.04	4.6451E+5	4.5368	0.2784	+1.5
209.24	4.6501E+5	4.5439	0.2755	+6.3
209.46	4.6551E+5	4.5382	0.2744	+4.5
209.68	4.6601E+5	4.5396	0.2777	+4.1
209.87	4.6651E+5	4.5354	0.2708	+3.1
210.07	4.6701E+5	4.5354	0.2630	+4.5
210.27	4.6751E+5	4.5326	0.2649	+3.8
210.47	4.6801E+5	4.5354	0.2715	+3.8
210.67	4.6851E+5	4.5354	0.2683	+2.0
210.87	4.6901E+5	4.5326	0.2545	+4.8
211.07	4.6951E+5	4.5368	0.2647	+5.2
211.27	4.7001E+5	4.5326	0.2545	+3.7
211.47	4.7051E+5	4.5297	0.2416	+5.8
211.67	4.7101E+5	4.5269	0.2515	+6.2
211.87	4.7151E+5	4.5382	0.2531	+4.8
212.07	4.7201E+5	4.5410	0.2394	+8.6
212.29	4.7251E+5	4.5425	0.2347	+5.2
212.49	4.7301E+5	4.5326	0.2335	+5.6
212.70	4.7351E+5	4.5368	0.2350	+8.3
212.90	4.7401E+5	4.5354	0.2192	+9.6
213.10	4.7451E+5	4.5396	0.2353	+6.5
213.30	4.7501E+5	4.5354	0.2197	+9.1
213.50	4.7551E+5	4.5368	0.2286	+4.5
213.70	4.7601E+5	4.5439	0.2253	+7.5
213.93	4.7651E+5	4.5368	0.2181	+8.0
214.15	4.7701E+5	4.5311	0.2251	+5.9
214.35	4.7751E+5	4.5396	0.2166	+8.7
214.55	4.7801E+5	4.5354	0.2229	+6.9
214.75	4.7851E+5	4.5354	0.2100	+9.6
214.95	4.7901E+5	4.5410	0.2104	+8.9
215.18	4.7951E+5	4.5368	0.2112	+7.2
215.38	4.8001E+5	4.5354	0.2130	+11.3
215.58	4.8051E+5	4.5340	0.2076	+11.2
215.78	4.8101E+5	4.5368	0.2157	+10.2
215.98	4.8151E+5	4.5368	0.1949	+8.4
216.18	4.8201E+5	4.5382	0.1927	+10.4
216.38	4.8251E+5	4.5439	0.1948	+8.0
216.59	4.8301E+5	4.5368	0.1965	+8.4
216.83	4.8351E+5	4.5340	0.1983	+10.3
217.03	4.8401E+5	4.5410	0.1910	+11.6
217.24	4.8451E+5	4.5396	0.1901	+8.7
217.46	4.8501E+5	4.5326	0.1906	+9.3
217.66	4.8551E+5	4.5354	0.1805	+11.7
217.86	4.8601E+5	4.5382	0.1910	+11.5
218.06	4.8651E+5	4.5368	0.1757	+12.1
218.26	4.8701E+5	4.5382	0.1930	+10.0
218.46	4.8751E+5	4.5382	0.1870	+12.8
218.66	4.8801E+5	4.5396	0.1872	+8.7
218.84	4.8851E+5	4.5368	0.1731	+9.9
219.04	4.8901E+5	4.5297	0.1880	+11.1
219.24	4.8951E+5	4.5340	0.1857	+13.5
219.44	4.9001E+5	4.5396	0.1870	+12.9
219.64	4.9051E+5	4.5382	0.1851	+10.0
219.84	4.9101E+5	4.5311	0.1788	+11.4
220.04	4.9151E+5	4.5382	0.1748	+10.1
220.24	4.9201E+5	4.5425	0.1679	+10.4
220.45	4.9251E+5	4.5382	0.1681	+9.2
220.65	4.9301E+5	4.5396	0.1594	+11.1
220.85	4.9351E+5	4.5439	0.1840	+12.7
221.07	4.9401E+5	4.5396	0.1689	+9.6
221.28	4.9451E+5	4.5410	0.1650	+12.5
221.50	4.9501E+5	4.5340	0.1679	+10.5
221.72	4.9551E+5	4.5354	0.1695	+12.5
221.91	4.9601E+5	4.5368	0.1581	+13.6
222.12	4.9651E+5	4.5410	0.1610	+15.3
222.33	4.9701E+5	4.5340	0.1593	+10.5
222.55	4.9751E+5	4.5425	0.1606	+12.7
222.76	4.9801E+5	4.5368	0.1581	+11.8
223.00	4.9851E+5	4.5425	0.1683	+10.7
223.21	4.9901E+5	4.5425	0.1573	+12.1
223.41	4.9951E+5	4.5340	0.1625	+15.9
223.63	5.0001E+5	4.5382	0.1489	+12.8
223.83	5.0051E+5	4.5340	0.1521	+12.8
224.03	5.0101E+5	4.5382	0.1576	+15.8
224.23	5.0151E+5	4.5382	0.1643	+15.6
224.43	5.0201E+5	4.5382	0.1493	+13.8
224.63	5.0251E+5	4.5396	0.1554	+9.7
224.84	5.0301E+5	4.5368	0.1491	+13.2
225.04	5.0351E+5	4.5368	0.1478	+11.9
225.24	5.0401E+5	4.5382	0.1484	+10.1
225.44	5.0451E+5	4.5439	0.1400	+16.9
225.66	5.0501E+5	4.5340	0.1519	+12.5
225.87	5.0551E+5	4.5410	0.1566	+12.8
226.09	5.0601E+5	4.5382	0.1498	+11.7
226.31	5.0651E+5	4.5396	0.1426	+11.0
226.51	5.0701E+5	4.5340	0.1443	+11.4
226.71	5.0751E+5	4.5396	0.1469	+12.1
226.90	5.0801E+5	4.5382	0.1400	+14.0
227.10	5.0851E+5	4.5439	0.1357	+16.7
227.32	5.0901E+5	4.5354	0.1355	+11.8
227.53	5.0951E+5	4.5354	0.1348	+11.5
227.74	5.1001E+5	4.5382	0.1379	+12.2
227.94	5.1051E+5	4.5382	0.1327	+15.4
228.14	5.1101E+5	4.5326	0.1312	+11.7
228.34	5.1151E+5	4.5382	0.1345	+13.3
228.53	5.1201E+5	4.5340	0.1297	+13.8
228.73	5.1251E+5	4.5354	0.1396	+16.8
228.93	5.1301E+5	4.5354	0.1286	+14.5
229.13	5.1351E+5	4.5396	0.1331	+10.8
229.33	5.1401E+5	4.5410	0.1354	+15.7
229.56	5.1451E+5	4.5382	0.1313	+14.2
229.78	5.1501E+5	4.5382	0.1335	+8.0
229.98	5.1551E+5	4.5396	0.1270	+12.1
230.18	5.1601E+5	4.5453	0.1407	+17.2
230.40	5.1651E+5	4.5311	0.1178	+8.7
230.61	5.1701E+5	4.5425	0.1235	+15.3
230.85	5.1751E+5	4.5368	0.1304	+11.0
231.06	5.1801E+5	4.5354	0.1340	+14.5
231.26	5.1851E+5	4.5382	0.1297	+18.6
231.46	5.1901E+5	4.5311	0.1304	+14.3
231.65	5.1951E+5	4.5297	0.1248	+12.4
231.84	5.2001E+5	4.5354	0.1360	+15.5
232.04	5.2051E+5	4.5410	0.1275	+15.7
232.26	5.2101E+5	4.5410	0.1262	+14.1
232.46	5.2151E+5	4.5297	0.1214	+13.2
232.68	5.2201E+5	4.5269	0.1205	+11.8
232.87	5.2251E+5	4.5382	0.1249	+11.4
233.07	5.2301E+5	4.5354	0.1221	+8.9
233.28	5.2351E+5	4.5410	0.1219	+11.8
233.47	5.2401E+5	4.5439	0.1195	+17.9
233.67	5.2451E+5	4.5354	0.1279	+9.1
233.89	5.2501E+5	4.5354	0.1176	+13.9
234.09	5.2551E+5	4.5396	0.1120	+10.8
234.29	5.2601E+5	4.5354	0.1169	+17.1
234.49	5.2651E+5	4.5311	0.1187	+11.1
234.69	5.2701E+5	4.5425	0.1088	+11.7
234.90	5.2751E+5	4.5382	0.1125	+16.0
235.12	5.2801E+5	4.5382	0.1223	+19.2
235.32	5.2851E+5	4.5368	0.1103	+13.4
235.52	5.2901E+5	4.5326	0.1148	+12.7
235.72	5.2951E+5	4.5425	0.1100	+14.6
235.95	5.3001E+5	4.5382	0.1122	+16.5
236.17	5.3051E+5	4.5340	0.1106	+11.4
236.37	5.3101E+5	4.5382	0.1125	+16.3
236.57	5.3151E+5	4.5368	0.1226	+10.7
236.77	5.3201E+5	4.5368	0.1152	+14.9
236.97	5.3251E+5	4.5354	0.1118	+10.0
237.17	5.3301E+5	4.5382	0.1054	+13.1
237.37	5.3351E+5	4.5326	0.1065	+13.0
237.55	5.3401E+5	4.5396	0.1064	+13.2
237.73	5.3451E+5	4.5396	0.1148	+8.9
237.93	5.3501E+5	4.5354	0.1086	+10.0
238.13	5.3551E+5	4.5425	0.0998	+17.5
238.35	5.3601E+5	4.5368	0.1048	+12.5
238.56	5.3651E+5	4.5410	0.1078	+10.0
238.78	5.3701E+5	4.5354	0.1016	+17.3
239.00	5.3751E+5	4.5410	0.1113	+13.2
239.21	5.3801E+5	4.5382	0.1071	+10.6
239.43	5.3851E+5	4.5410	0.1157	+22.3
239.64	5.3901E+5	4.5354	0.1077	+7.9
239.86	5.3951E+5	4.5354	0.1158	+22.4
240.06	5.4001E+5	4.5368	0.1079	+11.0
240.26	5.4051E+5	4.5410	0.1046	+13.7
240.48	5.4101E+5	4.5354	0.1030	+13.0
240.69	5.4151E+5	4.5425	0.1028	+15.6
240.89	5.4201E+5	4.5410	0.0996	+16.0
241.09	5.4251E+5	4.5354	0.0948	+11.7
241.32	5.4301E+5	4.5354	0.1071	+13.5
241.52	5.4351E+5	4.5410	0.1018	+13.6
241.74	5.4401E+5	4.5396	0.1022	+12.7
241.94	5.4451E+5	4.5368	0.0982	+12.2
242.14	5.4501E+5	4.5396	0.1112	+13.9
242.34	5.4551E+5	4.5368	0.1054	+7.9
242.54	5.4601E+5	4.5368	0.1016	+13.5
242.74	5.4651E+5	4.5382	0.1062	+13.1
242.94	5.4701E+5	4.5382	0.1051	+17.4
243.14	5.4751E+5	4.5326	0.0980	+13.7
243.34	5.4801E+5	4.5340	0.1001	+10.7
243.54	5.4851E+5	4.5382	0.1002	+14.5
243.72	5.4901E+5	4.5340	0.1001	+10.7
243.90	5.4951E+5	4.5410	0.1016	+10.8
244.12	5.5001E+5	4.5368	0.0951	+12.8
244.33	5.5051E+5	4.5396	0.0978	+11.7
244.53	5.5101E+5	4.5297	0.0977	+7.9
244.72	5.5151E+5	4.5382	0.1038	+12.8
244.92	5.5201E+5	4.5410	0.0972	+8.6
245.13	5.5251E+5	4.5354	0.1032	+1.8
245.35	5.5301E+5	4.5354	0.0870	+14.7
245.55	5.5351E+5	4.5410	0.0901	+14.5
245.76	5.5401E+5	4.5410	0.0913	+15.2
245.96	5.5451E+5	4.5354	0.0966	+8.6
246.18	5.5501E+5	4.5396	0.0973	+15.6
246.38	5.5551E+5	4.5368	0.0926	+13.4
246.58	5.5601E+5	4.5354	0.0925	+10.7
246.78	5.5651E+5	4.5425	0.0888	+14.0
247.00	5.5701E+5	4.5368	0.0875	+14.6
247.21	5.5751E+5	4.5354	Inf	+364.9
247.39	5.5801E+5	4.5396	0.0920	+10.5
247.60	5.5851E+5	4.5396	0.0906	+15.8
247.79	5.5901E+5	4.5396	0.0990	+8.0
247.99	5.5951E+5	4.5297	0.1018	+6.6
248.19	5.6001E+5	4.5396	0.0962	+11.5
248.39	5.6051E+5	4.5354	0.0917	+23.3
248.59	5.6101E+5	4.5368	0.0918	+17.4
248.76	5.6151E+5	4.5311	0.0956	+16.8
248.96	5.6201E+5	4.5283	0.0897	+6.5
249.16	5.6251E+5	4.5410	0.0905	+10.6
249.37	5.6301E+5	4.5410	0.0915	+10.5
249.57	5.6351E+5	4.5396	0.0896	+12.8
249.79	5.6401E+5	4.5354	0.0912	+16.6
249.99	5.6451E+5	4.5382	0.0835	+11.9
250.19	5.6501E+5	4.5410	0.0892	+14.6
250.41	5.6551E+5	4.5311	0.0843	+13.0
250.62	5.6601E+5	4.5354	0.0890	+16.9
250.82	5.6651E+5	4.5340	0.0851	+11.0
251.02	5.6701E+5	4.5340	0.0919	+9.7
251.24	5.6751E+5	4.5368	0.0928	+9.3
251.44	5.6801E+5	4.5368	0.0887	+5.3
251.63	5.6851E+5	4.5382	0.0875	+9.2
251.84	5.6901E+5	4.5326	0.0842	+6.7
252.02	5.6951E+5	4.5382	0.0870	+10.6
252.22	5.7001E+5	4.5354	0.0888	+9.3
252.42	5.7051E+5	4.5368	0.0859	+11.5
252.62	5.7101E+5	4.5368	0.0865	+15.6
252.80	5.7151E+5	4.5396	0.0792	+14.2
253.00	5.7201E+5	4.5382	0.0892	+13.1
253.20	5.7251E+5	4.5354	0.0918	+12.5
253.40	5.7301E+5	4.5368	0.0861	+11.5
253.60	5.7351E+5	4.5354	0.0812	+11.4
253.80	5.7401E+5	4.5396	0.0835	+16.9
254.00	5.7451E+5	4.5396	0.0854	+8.7
254.20	5.7501E+5	4.5453	0.0774	+11.4
254.40	5.7551E+5	4.5368	0.0855	+13.0
254.61	5.7601E+5	4.5396	0.0891	+11.0
254.81	5.7651E+5	4.5368	0.0929	+14.2
255.01	5.7701E+5	4.5368	0.0874	+14.2
255.21	5.7751E+5	4.5368	0.0848	+10.8
255.41	5.7801E+5	4.5382	0.0820	+17.0
255.61	5.7851E+5	4.5297	0.0826	+16.6
255.79	5.7901E+5	4.5396	0.0842	+10.1
255.99	5.7951E+5	4.5368	0.0775	+13.2
256.19	5.8001E+5	4.5368	0.0876	+4.5
256.37	5.8051E+5	4.5269	0.0796	+9.1
256.57	5.8101E+5	4.5354	0.0913	+19.4
256.77	5.8151E+5	4.5368	0.0833	+15.2
256.97	5.8201E+5	4.5396	0.0835	+19.3
257.16	5.8251E+5	4.5354	0.0796	+6.3
257.36	5.8301E+5	4.5354	0.0827	+11.1
257.56	5.8351E+5	4.5410	0.0807	+11.1
257.77	5.8401E+5	4.5340	0.0766	+13.3
257.97	5.8451E+5	4.5340	0.0788	+14.5
258.17	5.8501E+5	4.5396	0.0765	+12.8
258.37	5.8551E+5	4.5326	0.0771	+17.3
258.55	5.8601E+5	4.5326	0.0760	+13.3
258.74	5.8651E+5	4.5354	0.0822	+17.5
258.94	5.8701E+5	4.5297	0.0746	+10.2
259.14	5.8751E+5	4.5382	0.0825	+6.9
259.34	5.8801E+5	4.5396	0.0781	+11.5
259.52	5.8851E+5	4.5326	0.0760	+9.0
259.72	5.8901E+5	4.5382	0.0729	+11.5
259.92	5.8951E+5	4.5368	0.0806	+19.1
260.12	5.9001E+5	4.5354	0.0776	+11.9
260.32	5.9051E+5	4.5326	0.0758	+15.0
260.52	5.9101E+5	4.5382	0.0793	+11.1
260.72	5.9151E+5	4.5368	0.0811	+3.8
260.92	5.9201E+5	4.5283	0.0752	+12.1
261.10	5.9251E+5	4.5326	0.0800	+12.3
261.30	5.9301E+5	4.5326	0.0758	+15.6
261.50	5.9351E+5	4.5354	0.0814	+12.7
261.70	5.9401E+5	4.5340	0.0744	+5.0
261.90	5.9451E+5	4.5354	0.0762	+13.2
262.10	5.9501E+5	4.5396	0.0860	+21.6
262.28	5.9551E+5	4.5368	0.0751	+15.5
262.48	5.9601E+5	4.5340	0.0794	+7.2
262.68	5.9651E+5	4.5297	0.0803	+12.4
262.88	5.9701E+5	4.5354	0.0804	+12.2
263.06	5.9751E+5	4.5354	0.0724	+11.1
263.26	5.9801E+5	4.5396	0.0758	+10.5
263.46	5.9851E+5	4.5368	0.0789	+11.4
263.64	5.9901E+5	4.5297	0.0746	+9.0
263.84	5.9951E+5	4.5326	0.0739	+14.4
264.06	6.0001E+5	4.5326	0.0788	+6.9
264.26	6.0051E+5	4.5425	Inf	+371.0
264.46	6.0101E+5	4.5382	0.0723	+9.1
264.69	6.0151E+5	4.5283	0.0772	+10.8
264.87	6.0201E+5	4.5396	0.0876	+3.8
265.07	6.0251E+5	4.5283	0.0738	+11.6
265.27	6.0301E+5	4.5396	0.0692	+15.2
265.47	6.0351E+5	4.5241	0.0697	+8.8
265.65	6.0401E+5	4.5326	0.0747	+4.2
265.84	6.0451E+5	4.5311	0.0718	+15.2
266.04	6.0501E+5	4.5354	0.0727	+8.1
266.22	6.0551E+5	4.5326	0.0679	+10.0
266.42	6.0601E+5	4.5354	0.0672	+10.8
266.62	6.0651E+5	4.5396	0.0716	+6.5
266.82	6.0701E+5	4.5326	0.0831	+8.8
267.00	6.0751E+5	4.5340	0.0686	+11.7
267.20	6.0801E+5	4.5340	0.0698	+14.0
267.39	6.0851E+5	4.5326	0.0715	+9.4
267.58	6.0901E+5	4.5297	0.0718	+10.3
267.77	6.0951E+5	4.5368	0.0687	+13.1
267.95	6.1001E+5	4.5354	0.0699	+9.4
268.13	6.1051E+5	4.5340	0.0683	+14.1
268.33	6.1101E+5	4.5326	0.0822	+2.3
268.53	6.1151E+5	4.5326	0.0678	+8.9
268.73	6.1201E+5	4.5340	0.0732	+15.9
268.92	6.1251E+5	4.5297	0.0693	+10.7
269.12	6.1301E+5	4.5311	0.0688	+8.1
269.30	6.1351E+5	4.5340	0.0710	+14.6
269.50	6.1401E+5	4.5311	0.0702	+15.1
269.68	6.1451E+5	4.5340	0.0705	+7.3
269.85	6.1501E+5	4.5297	0.0692	+14.5
270.05	6.1551E+5	4.5311	0.0816	+21.6
270.25	6.1601E+5	4.5340	0.0778	+14.5
270.44	6.1651E+5	4.5368	0.0717	+10.4
270.64	6.1701E+5	4.5354	0.0639	-343.7
270.83	6.1751E+5	4.5311	Inf	+358.2
271.01	6.1801E+5	4.5269	0.0697	+16.2
271.21	6.1851E+5	4.5283	0.0660	-345.2
271.41	6.1901E+5	4.5269	0.0790	+10.7
271.59	6.1951E+5	4.5340	0.0722	+17.4
271.79	6.2001E+5	4.5326	0.0685	+13.9
271.99	6.2051E+5	4.5269	0.0765	+8.7
272.19	6.2101E+5	4.5354	0.0691	+11.4
272.39	6.2151E+5	4.5283	0.0732	+12.6
272.57	6.2201E+5	4.5297	Inf	-343.5
272.76	6.2251E+5	4.5311	0.0697	+5.5
272.96	6.2301E+5	4.5311	0.0672	+3.5
273.16	6.2351E+5	4.5283	0.0703	+6.7
273.34	6.2401E+5	4.5283	0.0779	+7.2
273.54	6.2451E+5	4.5255	0.0641	+12.1
273.74	6.2501E+5	4.5297	0.0650	+15.8
273.94	6.2551E+5	4.5269	0.0661	+10.4
274.14	6.2601E+5	4.5311	0.0686	+3.1
274.32	6.2651E+5	4.5354	0.0746	+11.8
274.52	6.2701E+5	4.5255	0.0682	+6.0
274.72	6.2751E+5	4.5311	0.0677	-351.2
274.90	6.2801E+5	4.5269	0.0711	+4.1
275.08	6.2851E+5	4.5326	0.0659	+11.3
275.29	6.2901E+5	4.5297	0.0653	+8.9
275.49	6.2951E+5	4.5283	0.0757	+12.8
275.68	6.3001E+5	4.5283	0.0767	+22.9
275.85	6.3051E+5	4.5311	0.0637	+10.7
276.05	6.3101E+5	4.5368	Inf	+366.0
276.23	6.3151E+5	4.5297	0.0667	+13.5
276.43	6.3201E+5	4.5255	0.0710	+19.0
276.62	6.3251E+5	4.5255	0.0671	+7.0
276.81	6.3301E+5	4.5269	0.0659	+11.3
277.00	6.3351E+5	4.5255	0.0673	+10.6
277.20	6.3401E+5	4.5354	0.0690	+3.4
277.38	6.3451E+5	4.5297	0.0776	+19.1
277.58	6.3501E+5	4.5255	0.0623	+13.0
277.78	6.3551E+5	4.5227	0.0769	+19.9
277.98	6.3601E+5	4.5269	0.0797	+18.0
278.17	6.3651E+5	4.5340	0.0643	+8.0
278.36	6.3701E+5	4.5184	0.0675	+12.5
278.56	6.3751E+5	4.5255	0.0740	+9.3
278.76	6.3801E+5	4.5283	0.0650	+9.1
278.94	6.3851E+5	4.5326	0.0641	+7.5
279.14	6.3901E+5	4.5269	0.0644	+15.8
279.34	6.3951E+5	4.5326	0.0644	+6.5
279.52	6.4001E+5	4.5311	0.0654	+10.0
279.68	6.4051E+5	4.5255	0.0613	+13.8
279.88	6.4101E+5	4.5326	0.0642	+9.7
280.07	6.4151E+5	4.5255	0.0658	+12.5
280.26	6.4201E+5	4.5255	Inf	-340.6
280.44	6.4251E+5	4.5241	0.0799	+7.2
280.64	6.4301E+5	4.5269	0.0638	+18.3
280.84	6.4351E+5	4.5269	0.0647	+10.1
281.02	6.4401E+5	4.5283	0.0663	+6.8
281.22	6.4451E+5	4.5269	0.0620	+11.7
281.42	6.4501E+5	4.5255	Inf	+15.5
281.60	6.4551E+5	4.5283	Inf	+370.5
281.77	6.4601E+5	4.5241	0.0591	-344.0
281.97	6.4651E+5	4.5198	0.0647	+13.0
282.17	6.4701E+5	4.5227	0.0646	+16.3
282.34	6.4751E+5	4.5283	Inf	-352.0
282.52	6.4801E+5	4.5255	0.0611	-351.3
282.72	6.4851E+5	4.5283	0.0602	+2.8
282.90	6.4901E+5	4.5297	0.0585	-347.9
283.08	6.4951E+5	4.5269	Inf	-355.1
283.27	6.5001E+5	4.5227	0.0606	+9.7
283.47	6.5051E+5	4.5297	0.0658	+4.4
283.65	6.5101E+5	4.5283	0.0600	+8.6
283.85	6.5151E+5	4.5269	0.0596	+5.2
284.03	6.5201E+5	4.5340	0.0610	+15.0
284.20	6.5251E+5	4.5255	0.0598	+10.2
284.40	6.5301E+5	4.5283	0.0637	+7.0
284.60	6.5351E+5	4.5255	0.0653	+11.6
284.80	6.5401E+5	4.5283	0.0615	+6.3
284.98	6.5451E+5	4.5255	0.0563	-343.3
285.18	6.5501E+5	4.5255	0.0594	+13.5
285.38	6.5551E+5	4.5297	0.0682	-2.1
285.56	6.5601E+5	4.5255	0.0690	+6.4
285.76	6.5651E+5	4.5269	0.0589	+10.0
285.96	6.5701E+5	4.5311	0.0621	+8.2
286.15	6.5751E+5	4.5283	Inf	+368.7
286.33	6.5801E+5	4.5255	0.0602	+8.2
286.53	6.5851E+5	4.5326	0.0614	+16.4
286.71	6.5901E+5	4.5283	0.0570	-344.4
286.89	6.5951E+5	4.5255	Inf	+377.5
287.08	6.6001E+5	4.5212	0.0622	+7.7
287.28	6.6051E+5	4.5269	0.0589	-353.4
287.46	6.6101E+5	4.5283	0.0661	+6.5
287.66	6.6151E+5	4.5297	0.0631	+3.9
287.86	6.6201E+5	4.5255	0.0611	+10.4
288.04	6.6251E+5	4.5255	0.0585	+2.7
288.24	6.6301E+5	4.5283	0.0578	+3.9
288.42	6.6351E+5	4.5184	Inf	-351.4
288.59	6.6401E+5	4.5198	0.0604	+15.6
288.79	6.6451E+5	4.5255	0.0656	+6.8
288.99	6.6501E+5	4.5255	0.0614	+11.0
289.17	6.6551E+5	4.5227	0.0587	+12.6
289.37	6.6601E+5	4.5297	0.0571	+11.7
289.57	6.6651E+5	4.5255	0.0653	+7.5
289.75	6.6701E+5	4.5269	0.0615	+18.7
289.95	6.6751E+5	4.5297	Inf	+7.2
290.14	6.6801E+5	4.5241	0.0682	+15.2
290.32	6.6851E+5	4.5241	0.0654	+1.3
290.52	6.6901E+5	4.5269	0.0581	+14.0
290.72	6.6951E+5	4.5184	0.0584	+11.0
290.88	6.7001E+5	4.5326	0.0565	+3.4
291.08	6.7051E+5	4.5227	Inf	+10.0
291.27	6.7101E+5	4.5184	0.0659	+0.6
291.45	6.7151E+5	4.5212	Inf	+17.1
291.63	6.7201E+5	4.5283	0.0608	+18.4
291.83	6.7251E+5	4.5283	0.0598	+2.3
292.02	6.7301E+5	4.5184	0.0567	+18.0
292.22	6.7351E+5	4.5255	0.0550	-349.7
292.42	6.7401E+5	4.5198	0.0553	+7.6
292.58	6.7451E+5	4.5184	Inf	-359.6
292.76	6.7501E+5	4.5212	Inf	+14.0
292.95	6.7551E+5	4.5269	0.0608	+2.1
293.13	6.7601E+5	4.5212	Inf	+3.7
293.31	6.7651E+5	4.5283	0.0650	+11.4
293.51	6.7701E+5	4.5269	0.0617	+12.5
293.70	6.7751E+5	4.5326	0.0596	+11.3
293.89	6.7801E+5	4.5283	Inf	-350.3
294.08	6.7851E+5	4.5255	0.0638	+18.6
294.26	6.7901E+5	4.5255	0.0587	+4.2
294.46	6.7951E+5	4.5311	Inf	+12.4
294.64	6.8001E+5	4.5283	0.0563	+7.6
294.83	6.8051E+5	4.5227	0.0564	+8.8
295.01	6.8101E+5	4.5297	0.0577	-355.1
295.21	6.8151E+5	4.5255	0.0562	+9.3
295.39	6.8201E+5	4.5269	0.0569	+7.2
295.57	6.8251E+5	4.5255	0.0537	-343.5
295.77	6.8301E+5	4.5283	Inf	+12.0
295.94	6.8351E+5	4.5297	0.0560	+3.8
296.14	6.8401E+5	4.5255	0.0554	+10.8
296.32	6.8451E+5	4.5269	0.0635	+4.9
296.52	6.8501E+5	4.5255	0.0563	-355.5
296.72	6.8551E+5	4.5212	0.0550	+8.7
296.91	6.8601E+5	4.5269	0.0564	+2.4
297.11	6.8651E+5	4.5311	0.0551	+10.4
297.31	6.8701E+5	4.5255	0.0572	+4.6
297.49	6.8751E+5	4.5241	0.0587	+4.2
297.69	6.8801E+5	4.5326	0.0568	+10.1
297.89	6.8851E+5	4.5241	0.0547	+12.8
298.07	6.8901E+5	4.5212	0.0575	+7.0
298.27	6.8951E+5	4.5255	0.0635	+19.0
298.45	6.9001E+5	4.5227	0.0549	-351.8
298.65	6.9051E+5	4.5269	0.0534	-342.3
298.85	6.9101E+5	4.5227	0.0541	-351.8
299.02	6.9151E+5	4.5255	0.0550	-353.4
299.22	6.9201E+5	4.5255	0.0555	-353.4
299.40	6.9251E+5	4.5241	0.0541	-348.3
299.58	6.9301E+5	4.5269	Inf	+373.6
299.77	6.9351E+5	4.5326	0.0626	+13.1
299.95	6.9401E+5	4.5255	0.0570	+10.2
300.15	6.9451E+5	4.5283	0.0549	+9.1
300.35	6.9501E+5	4.5170	0.0562	+10.8
300.53	6.9551E+5	4.5241	0.0536	+5.2
300.73	6.9601E+5	4.5241	Inf	+Inf
300.91	6.9651E+5	4.5212	0.0571	+10.4
301.10	6.9701E+5	4.5326	0.0545	+3.8
301.30	6.9751E+5	4.5283	Inf	-360.7
301.46	6.9801E+5	4.5227	0.0590	+7.8
301.66	6.9851E+5	4.5227	0.0591	+7.3
301.84	6.9901E+5	4.5255	Inf	+14.6
302.01	6.9951E+5	4.5142	0.0609	-4.1
302.21	7.0001E+5	4.5227	Inf	+367.6
302.38	7.0051E+5	4.5170	0.0547	+2.4
302.58	7.0101E+5	4.5283	0.0549	+9.8
302.76	7.0151E+5	4.5297	0.0608	-3.2
302.94	7.0201E+5	4.5241	0.0573	+8.3
303.14	7.0251E+5	4.5241	Inf	+366.1
303.32	7.0301E+5	4.5255	0.0553	+5.5
303.51	7.0351E+5	4.5227	0.0533	+10.4
303.71	7.0401E+5	4.5326	0.0593	+4.1
303.89	7.0451E+5	4.5311	0.0556	+5.8
304.09	7.0501E+5	4.5227	0.0545	+7.9
304.27	7.0551E+5	4.5227	0.0553	+8.6
304.44	7.0601E+5	4.5227	0.0551	+6.9
304.62	7.0651E+5	4.5283	0.0530	-354.3
304.81	7.0701E+5	4.5241	0.0537	+5.6
305.01	7.0751E+5	4.5311	0.0527	-343.3
305.20	7.0801E+5	4.5241	0.0533	-346.5
305.37	7.0851E+5	4.5297	0.0511	-347.2
305.57	7.0901E+5	4.5227	0.0522	-351.0
305.75	7.0951E+5	4.5241	Inf	+6.3
305.94	7.1001E+5	4.5297	0.0529	+6.6
306.12	7.1051E+5	4.5255	0.0546	+7.2
306.30	7.1101E+5	4.5241	0.0586	-3.5
306.50	7.1151E+5	4.5311	0.0542	+10.1
306.69	7.1201E+5	4.5297	0.0550	+7.2
306.88	7.1251E+5	4.5198	Inf	-350.1
307.03	7.1301E+5	4.5227	Inf	+369.7
307.22	7.1351E+5	4.5227	0.0534	+7.0
307.42	7.1401E+5	4.5212	0.0527	+8.7
307.60	7.1451E+5	4.5255	0.0511	+7.0
307.80	7.1501E+5	4.5241	0.0539	+9.5
307.98	7.1551E+5	4.5297	0.0560	+4.9
308.18	7.1601E+5	4.5212	Inf	+7.3
308.36	7.1651E+5	4.5283	Inf	-351.3
308.53	7.1701E+5	4.5212	Inf	-357.6
308.71	7.1751E+5	4.5212	Inf	+362.1
308.88	7.1801E+5	4.5170	0.0532	+11.9
309.08	7.1851E+5	4.5142	0.0545	+7.2
309.28	7.1901E+5	4.5227	Inf	-2.9
309.45	7.1951E+5	4.5269	0.0509	-341.7
309.64	7.2001E+5	4.5170	0.0537	+8.6
309.83	7.2051E+5	4.5241	0.0526	+3.1
310.03	7.2101E+5	4.5198	0.0542	-358.0
310.21	7.2151E+5	4.5255	Inf	+375.6
310.39	7.2201E+5	4.5170	0.0521	+2.8
310.59	7.2251E+5	4.5170	0.0532	+13.1
310.77	7.2301E+5	4.5255	Inf	+2.4
310.96	7.2351E+5	4.5184	0.0591	-0.8
311.14	7.2401E+5	4.5255	0.0505	+4.6
311.34	7.2451E+5	4.5212	0.0516	-348.2
311.51	7.2501E+5	4.5184	0.0531	+12.2
311.71	7.2551E+5	4.5241	0.0529	+8.5
311.91	7.2601E+5	4.5255	0.0518	+7.3
312.07	7.2651E+5	4.5269	0.0535	+5.5
312.27	7.2701E+5	4.5198	0.0525	+3.0
312.46	7.2751E+5	4.5269	0.0517	+3.5
312.64	7.2801E+5	4.5283	0.0509	-345.1
312.82	7.2851E+5	4.5227	0.0506	-341.5
313.00	7.2901E+5	4.5283	0.0539	+12.5
313.20	7.2951E+5	4.5241	0.0583	-2.7
313.39	7.3001E+5	4.5255	Inf	+8.7
313.57	7.3051E+5	4.5255	0.0503	+4.1
313.75	7.3101E+5	4.5184	0.0505	+11.1
313.94	7.3151E+5	4.5227	0.0523	+7.4
314.12	7.3201E+5	4.5212	0.0513	+8.4
314.32	7.3251E+5	4.5227	0.0523	-347.1
314.49	7.3301E+5	4.5283	0.0531	+8.0
314.69	7.3351E+5	4.5198	0.0516	+3.6
314.88	7.3401E+5	4.5184	0.0495	-348.4
315.07	7.3451E+5	4.5269	0.0516	-349.3
315.27	7.3501E+5	4.5198	0.0508	+4.8
315.43	7.3551E+5	4.5241	0.0517	+1.6
315.63	7.3601E+5	4.5241	0.0492	-346.1
315.82	7.3651E+5	4.5227	0.0492	-348.7
316.00	7.3701E+5	4.5170	0.0517	+7.6
316.18	7.3751E+5	4.5297	0.0504	+4.7
316.38	7.3801E+5	4.5227	0.0519	+13.7
316.56	7.3851E+5	4.5212	Inf	+5.3
316.71	7.3901E+5	4.5269	0.0514	-357.5
316.90	7.3951E+5	4.5156	0.0514	+13.6
317.05	7.4001E+5	4.5212	0.0523	+4.5
317.23	7.4051E+5	4.5198	0.0495	-347.7
317.39	7.4101E+5	4.5212	0.0578	-4.9
317.58	7.4151E+5	4.5241	0.0506	+3.5
317.74	7.4201E+5	4.5241	0.0513	-356.4
317.91	7.4251E+5	4.5170	0.0557	+5.3
318.08	7.4301E+5	4.5255	Inf	+7.8
318.24	7.4351E+5	4.5212	0.0516	+6.3
318.43	7.4401E+5	4.5269	0.0502	+3.3
318.59	7.4451E+5	4.5184	0.0527	+6.7
318.77	7.4501E+5	4.5227	Inf	-6.7
318.92	7.4551E+5	4.5212	0.0494	-348.0
319.11	7.4601E+5	4.5241	0.0512	-0.1
319.27	7.4651E+5	4.5170	0.0491	-347.1
319.46	7.4701E+5	4.5326	0.0513	-353.1
319.62	7.4751E+5	4.5255	0.0511	+2.0
319.81	7.4801E+5	4.5255	0.0512	-357.2
319.97	7.4851E+5	4.5255	0.0512	-352.6
320.16	7.4901E+5	4.5212	0.0503	+10.7
320.32	7.4951E+5	4.5198	0.0503	+9.2
320.50	7.5001E+5	4.5198	Inf	+6.7
320.69	7.5051E+5	4.5156	0.0524	-1.5
320.87	7.5101E+5	4.5241	0.0522	+5.4
321.06	7.5151E+5	4.5241	0.0510	+6.4
321.24	7.5201E+5	4.5212	0.0555	+10.3
321.44	7.5251E+5	4.5184	0.0537	+4.5
321.62	7.5301E+5	4.5269	Inf	+6.0
321.80	7.5351E+5	4.5269	0.0483	-353.8
321.99	7.5401E+5	4.5156	0.0500	-347.1
322.19	7.5451E+5	4.5297	0.0520	-359.2
322.37	7.5501E+5	4.5241	0.0507	+11.9
322.57	7.5551E+5	4.5297	0.0491	-346.9
322.75	7.5601E+5	4.5142	0.0494	-356.9
322.93	7.5651E+5	4.5198	Inf	-7.2
323.10	7.5701E+5	4.5212	Inf	+1.9
323.28	7.5751E+5	4.5269	0.0562	+0.4
323.47	7.5801E+5	4.5297	0.0477	+9.4
323.67	7.5851E+5	4.5198	Inf	+5.6
323.83	7.5901E+5	4.5212	0.0580	-4.8
324.03	7.5951E+5	4.5255	0.0497	+3.1
324.23	7.6001E+5	4.5156	0.0508	+16.7
324.41	7.6051E+5	4.5297	Inf	+14.8
324.60	7.6101E+5	4.5212	0.0519	+5.6
324.78	7.6151E+5	4.5212	Inf	-4.7
324.96	7.6201E+5	4.5184	0.0503	-3.9
325.15	7.6251E+5	4.5170	0.0493	+12.8
325.35	7.6301E+5	4.5227	0.0482	+2.5
325.53	7.6351E+5	4.5297	0.0501	+2.9
325.73	7.6401E+5	4.5212	0.0477	-349.7
325.91	7.6451E+5	4.5156	0.0493	+7.6
326.11	7.6501E+5	4.5241	0.0504	+4.8
326.29	7.6551E+5	4.5184	0.0484	+6.6
326.49	7.6601E+5	4.5241	Inf	+13.2
326.66	7.6651E+5	4.5241	0.0490	+9.6
326.86	7.6701E+5	4.5227	0.0501	-347.2
327.02	7.6751E+5	4.5212	0.0486	+352.1
327.23	7.6801E+5	4.5184	0.0489	+10.4
327.41	7.6851E+5	4.5241	Inf	+371.5
327.59	7.6901E+5	4.5198	Inf	+21.3
327.76	7.6951E+5	4.5255	0.0497	+7.1
327.94	7.7001E+5	4.5184	0.0478	-352.5
328.12	7.7051E+5	4.5128	0.0511	+4.4
328.32	7.7101E+5	4.5212	0.0491	+8.1
328.51	7.7151E+5	4.5170	0.0486	+8.8
328.71	7.7201E+5	4.5156	0.0477	-344.6
328.87	7.7251E+5	4.5241	0.0476	+8.6
329.05	7.7301E+5	4.5198	Inf	+6.2
329.22	7.7351E+5	4.5212	0.0505	+358.6
329.42	7.7401E+5	4.5283	0.0494	+5.9
329.60	7.7451E+5	4.5170	0.0494	+353.2
329.79	7.7501E+5	4.5227	0.0505	-351.2
329.97	7.7551E+5	4.5170	Inf	-1.3
330.15	7.7601E+5	4.5212	0.0482	+5.6
330.33	7.7651E+5	4.5212	0.0529	+3.6
330.53	7.7701E+5	4.5212	Inf	+16.6
330.70	7.7751E+5	4.5156	0.0482	-350.6
330.90	7.7801E+5	4.5227	0.0491	+5.9
331.08	7.7851E+5	4.5255	0.0485	+4.8
331.28	7.7901E+5	4.5326	0.0482	-344.6
331.45	7.7951E+5	4.5255	0.0482	+354.0
331.63	7.8001E+5	4.5170	0.0482	+8.3
331.80	7.8051E+5	4.5198	0.0535	+15.3
332.00	7.8101E+5	4.5156	0.0436	+0.3
332.18	7.8151E+5	4.5241	0.0480	-351.7
332.38	7.8201E+5	4.5241	0.0487	-4.1
332.55	7.8251E+5	4.5212	0.0492	-351.3
332.75	7.8301E+5	4.5198	0.0482	-350.1
332.93	7.8351E+5	4.5156	0.0490	+5.8
333.13	7.8401E+5	4.5170	0.0491	+1.3
333.29	7.8451E+5	4.5269	0.0476	+5.8
333.49	7.8501E+5	4.5212	0.0530	+2.5
333.68	7.8551E+5	4.5212	0.0497	-348.8
333.88	7.8601E+5	4.5184	0.0485	+5.9
334.06	7.8651E+5	4.5212	0.0476	-350.1
334.24	7.8701E+5	4.5241	Inf	+1.3
334.41	7.8751E+5	4.5184	0.0466	-352.3
334.61	7.8801E+5	4.5212	0.0512	-2.7
334.79	7.8851E+5	4.5113	Inf	-355.7
334.99	7.8901E+5	4.5280	0.0469	-353.6
335.19	7.8951E+5	4.5255	Inf	+1.8
335.37	7.9001E+5	4.5255	Inf	+2.1
335.54	7.9051E+5	4.5241	0.0472	-350.2
335.71	7.9101E+5	4.5255	0.0477	+8.1
335.91	7.9151E+5	4.5156	0.0475	-352.4
336.07	7.9201E+5	4.5085	0.0483	-352.7
336.27	7.9251E+5	4.5215	0.0477	+6.2
336.45	7.9301E+5	4.5227	Inf	-3.7
336.64	7.9351E+5	4.5170	0.0474	-351.8
336.82	7.9401E+5	4.5184	Inf	+5.0
337.00	7.9451E+5	4.5170	0.0475	-353.6
337.19	7.9501E+5	4.5099	0.0480	+6.0
337.38	7.9551E+5	4.5201	Inf	+6.1
337.57	7.9601E+5	4.5212	0.0483	-359.1
337.75	7.9651E+5	4.5283	0.0481	+4.2
337.92	7.9701E+5	4.5156	0.0461	+3.0
338.12	7.9751E+5	4.5128	0.0480	+2.9
338.30	7.9801E+5	4.5241	0.0477	-357.4
338.48	7.9851E+5	4.5212	0.0522	+5.7
338.67	7.9901E+5	4.5255	0.0471	+3.2
338.87	7.9951E+5	4.5128	0.0476	+0.1
339.05	8.0001E+5	4.5227	0.0462	-347.2
339.23	8.0051E+5	4.5198	0.0508	-4.2
339.43	8.0101E+5	4.5241	0.0474	+15.3
339.61	8.0151E+5	4.5227	Inf	+346.2
339.80	8.0201E+5	4.5128	0.0465	+10.5
339.96	8.0251E+5	4.5212	0.0464	-351.9
340.15	8.0301E+5	4.5255	0.0476	+8.7
340.33	8.0351E+5	4.5184	0.0466	+5.6
340.53	8.0401E+5	4.5227	0.0475	+9.9
340.71	8.0451E+5	4.5241	Inf	+16.3
340.89	8.0501E+5	4.5156	0.0465	-356.8
341.08	8.0551E+5	4.5170	0.0472	+9.0
341.26	8.0601E+5	4.5184	Inf	+341.8
341.43	8.0651E+5	4.5184	0.0466	-355.8
341.59	8.0701E+5	4.5227	Inf	-3.9
341.76	8.0751E+5	4.5142	0.0517	-1.2
341.94	8.0801E+5	4.5170	0.0463	-351.3
342.14	8.0851E+5	4.5255	Inf	+4.9
342.31	8.0901E+5	4.5128	0.0472	+3.4
342.49	8.0951E+5	4.5170	Inf	+5.7
342.66	8.1001E+5	4.5212	0.0472	-348.5
342.84	8.1051E+5	4.5255	Inf	+7.4
343.01	8.1101E+5	4.5241	0.0471	+6.3
343.19	8.1151E+5	4.5241	0.0478	+2.2
343.37	8.1201E+5	4.5184	0.0469	+8.2
343.57	8.1251E+5	4.5184	Inf	-15.9
343.74	8.1301E+5	4.5184	Inf	+9.0
343.90	8.1351E+5	4.5156	0.0462	+8.2
344.09	8.1401E+5	4.5212	Inf	+5.4
344.25	8.1451E+5	4.5255	0.0473	+1.0
344.42	8.1501E+5	4.5198	0.0460	-354.6
344.59	8.1551E+5	4.5156	0.0466	+354.1
344.77	8.1601E+5	4.5212	0.0467	-348.3
344.94	8.1651E+5	4.5156	0.0473	+7.6
345.12	8.1701E+5	4.5170	0.0451	-2.7
345.30	8.1751E+5	4.5170	0.0453	+4.7
345.49	8.1801E+5	4.5099	Inf	+1.3
345.67	8.1851E+5	4.5133	0.0456	-4.3
345.85	8.1901E+5	4.5212	Inf	+10.6
346.03	8.1951E+5	4.5241	0.0459	+354.8
346.20	8.2001E+5	4.5212	0.0448	-356.2
346.38	8.2051E+5	4.5170	0.0554	-15.5
346.57	8.2101E+5	4.5212	Inf	+5.8
346.75	8.2151E+5	4.5227	0.0465	+357.2
346.93	8.2201E+5	4.5212	Inf	+5.2
347.11	8.2251E+5	4.5128	Inf	+8.9
347.28	8.2301E+5	4.5212	0.0468	+2.7
347.45	8.2351E+5	4.5212	Inf	+12.3
347.63	8.2401E+5	4.5170	Inf	-10.2
347.80	8.2451E+5	4.5128	Inf	+5.5
347.98	8.2501E+5	4.5142	Inf	-2.4
348.15	8.2551E+5	4.5113	0.0473	+8.8
348.35	8.2601E+5	4.5169	0.0466	+5.3
348.53	8.2651E+5	4.5198	Inf	-8.4
348.69	8.2701E+5	4.5212	Inf	+3.6
348.88	8.2751E+5	4.5128	0.0461	+353.4
349.04	8.2801E+5	4.5212	0.0463	-353.7
349.21	8.2851E+5	4.5142	0.0453	+6.0
349.39	8.2901E+5	4.5128	0.0462	+355.7
349.59	8.2951E+5	4.5113	0.0458	-5.7
349.79	8.3001E+5	4.5173	0.0459	+4.8
349.99	8.3051E+5	4.5255	0.0449	+4.9
350.16	8.3101E+5	4.5142	0.0459	-350.9
350.33	8.3151E+5	4.5142	0.0453	+2.7
350.51	8.3201E+5	4.5113	0.0451	+8.1
350.69	8.3251E+5	4.5128	0.0453	+8.2
350.89	8.3301E+5	4.5212	Inf	+10.9
351.06	8.3351E+5	4.5156	0.0466	+2.1
351.26	8.3401E+5	4.5198	0.0462	-357.6
351.42	8.3451E+5	4.5156	0.0459	-351.6
351.59	8.3501E+5	4.5170	0.0454	+1.5
351.77	8.3551E+5	4.5113	0.0452	-4.8
351.96	8.3601E+5	4.5129	0.0455	-353.1
352.15	8.3651E+5	4.5156	Inf	+8.4
352.32	8.3701E+5	4.5156	0.0454	+2.6
352.49	8.3751E+5	4.5170	Inf	+3.0
352.65	8.3801E+5	4.5198	0.0459	+8.1
352.82	8.3851E+5	4.5099	0.0459	-0.3
353.02	8.3901E+5	4.5160	Inf	-8.8
353.20	8.3951E+5	4.5170	Inf	+9.2
353.38	8.4001E+5	4.5198	Inf	+2.0
353.53	8.4051E+5	4.5057	Inf	+1.4
353.74	8.4101E+5	4.5236	0.0456	+9.8
353.92	8.4151E+5	4.5156	0.0485	+5.5
354.10	8.4201E+5	4.5241	Inf	+6.4
354.28	8.4251E+5	4.5184	0.0448	-353.0
354.47	8.4301E+5	4.5198	0.0451	+6.5
354.65	8.4351E+5	4.5128	0.0451	-354.4
354.80	8.4401E+5	4.5156	Inf	+11.6
354.98	8.4451E+5	4.5156	Inf	+1.1
355.15	8.4501E+5	4.5184	Inf	+7.0
355.31	8.4551E+5	4.5170	0.0452	-351.6
355.50	8.4601E+5	4.5142	0.0490	+6.4
355.68	8.4651E+5	4.5128	0.0459	+353.2
355.88	8.4701E+5	4.5170	0.0454	-357.4
356.05	8.4751E+5	4.5142	0.0455	-352.8
356.21	8.4801E+5	4.5184	Inf	+2.1
356.40	8.4851E+5	4.5142	0.0458	+5.9
356.56	8.4901E+5	4.5156	0.0452	+6.7
356.75	8.4951E+5	4.5184	0.0446	+5.2
356.91	8.5001E+5	4.5142	0.0492	-5.5
357.11	8.5051E+5	4.5227	0.0457	-347.1
357.30	8.5101E+5	4.5142	0.0441	-354.6
357.48	8.5151E+5	4.5128	Inf	-9.0
357.66	8.5201E+5	4.5212	0.0443	-353.4
357.82	8.5251E+5	4.5156	0.0443	-356.9
358.01	8.5301E+5	4.5113	0.0445	+3.1
358.18	8.5351E+5	4.5142	0.0503	-8.1
358.37	8.5401E+5	4.5156	Inf	+6.0
358.56	8.5451E+5	4.5128	0.0448	-357.4
358.74	8.5501E+5	4.5113	0.0448	+1.1
358.94	8.5551E+5	4.5152	Inf	-0.6
359.12	8.5601E+5	4.5113	0.0446	+10.2
359.31	8.5651E+5	4.5219	0.0442	+2.6
359.52	8.5701E+5	4.5099	Inf	+3.1
359.70	8.5751E+5	4.5096	Inf	+2.5
359.89	8.5801E+5	4.5116	0.0438	-0.8
360.07	8.5851E+5	4.5170	0.0446	-1.4
360.27	8.5901E+5	4.5099	0.0446	+8.5
360.45	8.5951E+5	4.5119	0.0424	-0.2
360.65	8.6001E+5	4.5099	Inf	+4.3
360.85	8.6051E+5	4.5236	0.0443	-348.5
361.05	8.6101E+5	4.5227	0.0444	-0.6
361.22	8.6151E+5	4.5099	0.0434	+0.9
361.40	8.6201E+5	4.5095	Inf	-4.0
361.57	8.6251E+5	4.5149	0.0443	-358.1
361.77	8.6301E+5	4.5085	0.0447	-354.1
361.97	8.6351E+5	4.5140	Inf	-13.8
362.17	8.6401E+5	4.5113	Inf	-3.6
362.35	8.6451E+5	4.5060	0.0440	-352.4
362.53	8.6501E+5	4.5054	0.0447	+2.5
362.73	8.6551E+5	4.5164	0.0432	+8.6
362.93	8.6601E+5	4.5170	0.0443	-359.5
363.11	8.6651E+5	4.5142	0.0459	-350.3
363.30	8.6701E+5	4.5156	0.0444	-358.3
363.48	8.6751E+5	4.5156	Inf	+2.7
363.66	8.6801E+5	4.5128	0.0439	+5.2
363.83	8.6851E+5	4.5156	0.0446	-357.7
364.03	8.6901E+5	4.5170	0.0443	-1.7
364.21	8.6951E+5	4.5113	0.0444	-358.4
364.40	8.7001E+5	4.5167	0.0446	+1.3
364.61	8.7051E+5	4.5170	0.0438	+2.5
364.79	8.7101E+5	4.5156	0.0438	-1.6
364.98	8.7151E+5	4.5170	0.0432	-350.9
365.14	8.7201E+5	4.5212	Inf	-2.0
365.31	8.7251E+5	4.5156	0.0438	+6.6
365.49	8.7301E+5	4.5099	Inf	+2.7
365.68	8.7351E+5	4.5071	0.0438	+2.1
365.86	8.7401E+5	4.5048	Inf	-3.8
366.02	8.7451E+5	4.5125	0.0466	-354.2
366.23	8.7501E+5	4.5142	0.0445	+355.4
366.42	8.7551E+5	4.5099	0.0466	-358.1
366.62	8.7601E+5	4.5051	Inf	+5.7
366.79	8.7651E+5	4.5074	0.0440	+5.8
366.99	8.7701E+5	4.5128	0.0441	+7.7
367.17	8.7751E+5	4.5113	Inf	+7.9
367.37	8.7801E+5	4.5181	Inf	+350.0
367.56	8.7851E+5	4.5170	0.0440	-352.6
367.72	8.7901E+5	4.5128	0.0443	-354.0
367.90	8.7951E+5	4.5227	0.0432	+7.9
368.05	8.8001E+5	4.5085	Inf	-2.4
368.25	8.8051E+5	4.5125	Inf	+5.7
368.44	8.8101E+5	4.5057	0.0433	+5.7
368.62	8.8151E+5	4.5095	Inf	+1.3
368.80	8.8201E+5	4.5139	Inf	-22.4
368.99	8.8251E+5	4.5071	0.0438	+1.9
369.19	8.8301E+5	4.5154	0.0441	+1.6
369.37	8.8351E+5	4.5043	0.0430	+6.8
369.57	8.8401E+5	4.5174	Inf	+348.4
369.77	8.8451E+5	4.5156	Inf	+2.6
369.93	8.8501E+5	4.5085	0.0435	+361.0
370.13	8.8551E+5	4.5184	0.0430	+1.3
370.35	8.8601E+5	4.5057	Inf	+352.8
370.53	8.8651E+5	4.5009	Inf	+2.9
370.71	8.8701E+5	4.5082	Inf	+346.0
370.88	8.8751E+5	4.5082	0.0439	-353.6
371.05	8.8801E+5	4.5106	0.0426	+4.5
371.25	8.8851E+5	4.5094	0.0443	+4.8
371.43	8.8901E+5	4.5190	0.0425	+1.9
371.63	8.8951E+5	4.5142	0.0431	-4.0
371.83	8.9001E+5	4.5142	0.0431	+5.3
372.01	8.9051E+5	4.5057	0.0428	-351.5
372.21	8.9101E+5	4.5132	0.0435	+0.8
372.41	8.9151E+5	4.5071	Inf	+0.8
372.59	8.9201E+5	4.5064	Inf	+13.3
372.78	8.9251E+5	4.5034	0.0426	+9.0
372.96	8.9301E+5	4.4993	0.0432	+10.0
373.14	8.9351E+5	4.5177	0.0433	+4.4
373.34	8.9401E+5	4.5071	0.0426	+1.1
373.54	8.9451E+5	4.5137	Inf	+7.1
373.74	8.9501E+5	4.5184	0.0424	+3.4
373.91	8.9551E+5	4.5085	0.0429	+11.0
374.09	8.9601E+5	4.5130	0.0435	+361.1
374.31	8.9651E+5	4.5142	Inf	-8.4
374.47	8.9701E+5	4.5043	0.0440	-356.1
374.66	8.9751E+5	4.5149	Inf	+1.5
374.86	8.9801E+5	4.5057	0.0433	-357.4
375.04	8.9851E+5	4.5111	0.0429	-1.6
375.24	8.9901E+5	4.5112	0.0431	-355.8
375.40	8.9951E+5	4.5095	0.0443	+355.1
375.59	9.0001E+5	4.5109	0.0422	+5.7
375.79	9.0051E+5	4.5160	0.0438	-7.1
375.99	9.0101E+5	4.5099	0.0438	-354.5
376.17	9.0151E+5	4.5033	Inf	+2.1
376.35	9.0201E+5	4.5078	0.0450	-353.7
376.54	9.0251E+5	4.5146	0.0420	+1.0
376.75	9.0301E+5	4.5071	0.0429	+353.5
376.94	9.0351E+5	4.5084	0.0431	-351.9
377.10	9.0401E+5	4.5061	Inf	+349.6
377.28	9.0451E+5	4.5037	0.0425	+2.1
377.45	9.0501E+5	4.4999	0.0431	-356.9
377.62	9.0551E+5	4.5072	Inf	-2.1
377.80	9.0601E+5	4.5116	0.0421	+0.0
377.98	9.0651E+5	4.5085	0.0416	+0.7
378.18	9.0701E+5	4.5038	Inf	-1.6
378.36	9.0751E+5	4.5174	Inf	+350.9
378.55	9.0801E+5	4.5113	0.0422	-356.7
378.76	9.0851E+5	4.5085	Inf	-9.2
378.93	9.0901E+5	4.5171	Inf	+8.8
379.12	9.0951E+5	4.5071	0.0421	+3.6
379.31	9.1001E+5	4.5087	0.0425	+2.9
379.48	9.1051E+5	4.5055	0.0439	+358.0
379.66	9.1101E+5	4.5081	0.0424	+2.5
379.86	9.1151E+5	4.4976	Inf	+2.0
380.03	9.1201E+5	4.5055	0.0431	-351.8
380.19	9.1251E+5	4.5067	0.0421	+2.3
380.36	9.1301E+5	4.5075	Inf	-2.1
380.53	9.1351E+5	4.5050	0.0436	-355.7
380.73	9.1401E+5	4.5031	0.0433	-357.2
380.89	9.1451E+5	4.4995	0.0419	+0.3
381.07	9.1501E+5	4.5057	Inf	-0.2
381.26	9.1551E+5	4.5024	0.0452	+0.3
381.44	9.1601E+5	4.5053	Inf	+1.5
381.61	9.1651E+5	4.5033	Inf	-12.7
381.79	9.1701E+5	4.5123	Inf	-19.8
381.97	9.1751E+5	4.4944	0.0440	+3.0
382.17	9.1801E+5	4.5067	Inf	+5.3
382.36	9.1851E+5	4.5053	0.0430	-357.5
382.54	9.1901E+5	4.5063	0.0416	+355.9
382.72	9.1951E+5	4.5081	Inf	+3.1
382.90	9.2001E+5	4.5064	0.0429	-355.0
383.09	9.2051E+5	4.5063	0.0418	+2.3
383.27	9.2101E+5	4.5047	0.0421	-3.8
383.44	9.2151E+5	4.5087	0.0417	+9.6
383.62	9.2201E+5	4.5029	0.0423	-357.7
383.82	9.2251E+5	4.5089	0.0418	-1.8
383.99	9.2301E+5	4.5040	0.0395	+5.1
384.17	9.2351E+5	4.5040	Inf	+347.0
384.35	9.2401E+5	4.5085	Inf	+355.8
384.52	9.2451E+5	4.5128	0.0427	-358.5
384.72	9.2501E+5	4.5085	0.0429	-348.8
384.92	9.2551E+5	4.5085	Inf	-15.3
385.08	9.2601E+5	4.5072	0.0429	+2.0
385.25	9.2651E+5	4.5051	0.0416	+3.8
385.45	9.2701E+5	4.5051	Inf	+7.4
385.62	9.2751E+5	4.5041	0.0415	+1.5
385.78	9.2801E+5	4.5079	0.0429	-354.3
385.98	9.2851E+5	4.5012	Inf	+3.4
386.15	9.2901E+5	4.5051	Inf	+353.8
386.31	9.2951E+5	4.5126	0.0417	+2.8
386.53	9.3001E+5	4.5071	0.0416	+2.3
386.71	9.3051E+5	4.5099	0.0417	+0.7
386.91	9.3101E+5	4.5088	0.0424	+11.0
387.08	9.3151E+5	4.5016	Inf	+6.5
387.25	9.3201E+5	4.5026	0.0421	+4.4
387.41	9.3251E+5	4.5013	0.0439	+362.2
387.60	9.3301E+5	4.5058	0.0420	+5.7
387.78	9.3351E+5	4.5084	0.0416	+1.0
387.98	9.3401E+5	4.5068	0.0421	+2.2
388.16	9.3451E+5	4.5000	Inf	-0.3
388.33	9.3501E+5	4.5051	Inf	+7.7
388.51	9.3551E+5	4.5006	0.0415	+1.0
388.69	9.3601E+5	4.5037	0.0435	+358.5
388.86	9.3651E+5	4.4965	0.0419	+359.5
389.06	9.3701E+5	4.5013	Inf	-5.9
389.23	9.3751E+5	4.4968	0.0415	+8.3
389.41	9.3801E+5	4.5040	Inf	+8.1
389.59	9.3851E+5	4.4948	0.0408	+1.2
389.76	9.3901E+5	4.5007	Inf	+7.1
389.92	9.3951E+5	4.5074	Inf	+2.4
390.11	9.4001E+5	4.5002	0.0426	-357.3
390.29	9.4051E+5	4.4968	0.0415	-0.8
390.47	9.4101E+5	4.5046	Inf	+14.5
390.64	9.4151E+5	4.5047	Inf	-8.0
390.81	9.4201E+5	4.5014	0.0413	+2.0
390.97	9.4251E+5	4.5037	0.0463	+11.2
391.17	9.4301E+5	4.5043	Inf	+10.4
391.34	9.4351E+5	4.5050	0.0417	-357.8
391.50	9.4401E+5	4.5009	Inf	+12.1
391.69	9.4451E+5	4.5006	0.0420	+8.3
391.87	9.4501E+5	4.5057	Inf	+9.0
392.04	9.4551E+5	4.5033	0.0416	-353.5
392.24	9.4601E+5	4.5055	0.0381	-1.2
392.42	9.4651E+5	4.5072	0.0444	-361.5
392.60	9.4701E+5	4.5113	0.0413	-6.0
392.80	9.4751E+5	4.5007	0.0410	+3.6
392.97	9.4801E+5	4.5020	Inf	-15.5
393.13	9.4851E+5	4.5048	Inf	+349.9
393.32	9.4901E+5	4.5091	Inf	+4.6
393.48	9.4951E+5	4.5019	0.0424	+358.1
393.67	9.5001E+5	4.5027	0.0429	-356.6
393.85	9.5051E+5	4.5057	0.0414	+3.6
394.03	9.5101E+5	4.5074	0.0412	+358.6
394.20	9.5151E+5	4.4985	0.0400	+6.8
394.40	9.5201E+5	4.5007	0.0420	+1.7
394.56	9.5251E+5	4.4954	0.0407	+3.1
394.75	9.5301E+5	4.5016	Inf	+1.7
394.93	9.5351E+5	4.5002	0.0438	-354.7
395.11	9.5401E+5	4.5007	0.0433	-358.8
395.28	9.5451E+5	4.5003	0.0419	-5.5
395.48	9.5501E+5	4.5033	0.0417	+2.2
395.64	9.5551E+5	4.5081	0.0406	+10.7
395.83	9.5601E+5	4.4968	Inf	+7.1
396.01	9.5651E+5	4.4976	0.0409	-5.2
396.18	9.5701E+5	4.5024	0.0408	-6.6
396.34	9.5751E+5	4.5021	0.0406	+4.3
396.53	9.5801E+5	4.4976	0.0379	-5.4
396.71	9.5851E+5	4.5002	Inf	-1.6
396.88	9.5901E+5	4.5047	0.0408	+2.9
397.07	9.5951E+5	4.4971	0.0419	-359.3
397.26	9.6001E+5	4.5070	0.0408	+1.4
397.44	9.6051E+5	4.4968	0.0406	+2.4
397.61	9.6101E+5	4.5003	Inf	+0.3
397.77	9.6151E+5	4.4966	0.0411	+5.0
397.94	9.6201E+5	4.5061	Inf	-5.5
398.12	9.6251E+5	4.5007	0.0443	-5.4
398.31	9.6301E+5	4.5026	0.0428	+358.4
398.49	9.6351E+5	4.5043	Inf	+355.5
398.67	9.6401E+5	4.4964	Inf	+4.0
398.84	9.6451E+5	4.5070	0.0423	-361.4
399.00	9.6501E+5	4.4985	Inf	+1.6
399.19	9.6551E+5	4.4945	Inf	+354.4
399.35	9.6601E+5	4.5014	0.0407	+0.7
399.52	9.6651E+5	4.5067	0.0406	-357.7
399.70	9.6701E+5	4.5027	0.0410	+1.7
399.87	9.6751E+5	4.5037	0.0422	-360.5
400.05	9.6801E+5	4.4979	Inf	+2.3
400.22	9.6851E+5	4.4952	0.0421	-358.6
400.38	9.6901E+5	4.4924	Inf	-1.4
400.55	9.6951E+5	4.4965	0.0427	+12.4
400.72	9.7001E+5	4.5036	0.0437	-362.3
400.92	9.7051E+5	4.5048	0.0415	+5.8
401.10	9.7101E+5	4.5047	Inf	+352.1
401.26	9.7151E+5	4.5095	Inf	+5.8
401.45	9.7201E+5	4.4979	0.0432	+4.5
401.62	9.7251E+5	4.5036	0.0411	+5.6
401.80	9.7301E+5	4.4937	Inf	-351.9
401.98	9.7351E+5	4.5060	0.0411	+9.7
402.15	9.7401E+5	4.5010	0.0397	-3.2
402.33	9.7451E+5	4.5030	0.0415	-4.9
402.53	9.7501E+5	4.5043	Inf	+2.1
402.70	9.7551E+5	4.5029	0.0412	+0.0
402.86	9.7601E+5	4.4918	0.0429	+5.1
403.06	9.7651E+5	4.4986	0.0402	+1.8
403.24	9.7701E+5	4.4971	Inf	+7.0
403.41	9.7751E+5	4.4972	Inf	+6.9
403.58	9.7801E+5	4.4944	Inf	+0.5
403.74	9.7851E+5	4.4986	0.0418	-359.3
403.93	9.7901E+5	4.5000	Inf	+12.4
404.09	9.7951E+5	4.4986	0.0408	+6.3
404.29	9.8001E+5	4.5029	0.0427	-354.9
404.48	9.8051E+5	4.5000	0.0431	-364.6
404.64	9.8101E+5	4.5057	0.0399	+3.9
404.84	9.8151E+5	4.5000	0.0403	-355.9
405.01	9.8201E+5	4.4944	0.0398	-3.0
405.17	9.8251E+5	4.5000	0.0401	-4.6
405.36	9.8301E+5	4.4930	0.0402	-2.5
405.52	9.8351E+5	4.4944	Inf	+2.8
405.67	9.8401E+5	4.5014	Inf	-4.1
405.86	9.8451E+5	4.4958	0.0409	-1.6
406.04	9.8501E+5	4.4915	0.0399	-2.7
406.22	9.8551E+5	4.4901	Inf	+347.0
406.39	9.8601E+5	4.4901	0.0401	+0.5
406.57	9.8651E+5	4.4986	0.0403	-2.7
406.75	9.8701E+5	4.4958	0.0409	+360.9
406.92	9.8751E+5	4.4958	Inf	+7.1
407.10	9.8801E+5	4.4930	0.0399	+4.4
407.29	9.8851E+5	4.4930	0.0400	-1.2
407.45	9.8901E+5	4.5014	0.0415	-358.9
407.65	9.8951E+5	4.5029	0.0411	-361.1
407.80	9.9001E+5	4.4972	0.0415	-360.4
407.97	9.9051E+5	4.5043	0.0403	+352.5
408.15	9.9101E+5	4.5014	0.0408	+12.1
408.32	9.9151E+5	4.5014	0.0412	+359.8
408.48	9.9201E+5	4.4930	Inf	+0.2
408.65	9.9251E+5	4.5000	0.0401	-0.7
408.85	9.9301E+5	4.4972	0.0397	+5.2
409.02	9.9351E+5	4.4944	0.0410	+3.6
409.20	9.9401E+5	4.4972	Inf	-364.7
409.36	9.9451E+5	4.5000	0.0409	+3.2
409.53	9.9501E+5	4.5043	0.0411	+363.0
409.70	9.9551E+5	4.4944	0.0399	+0.9
409.90	9.9601E+5	4.4901	0.0402	-3.8
410.06	9.9651E+5	4.4972	0.0424	+3.4
410.25	9.9701E+5	4.4958	0.0399	-3.6
410.45	9.9751E+5	4.5014	Inf	+355.5
410.61	9.9801E+5	4.4915	0.0405	-0.9
410.80	9.9851E+5	4.4930	Inf	-5.6
410.96	9.9901E+5	4.5029	0.0408	-356.0
411.13	9.9951E+5	4.4972	Inf	-8.5
411.29	1.0000E+6	4.4986	0.0400	+357.8
411.48	1.0005E+6	4.5000	0.0404	+7.9
411.68	1.0010E+6	4.5014	Inf	-348.3
411.84	1.0015E+6	4.4915	0.0399	+1.3
412.03	1.0020E+6	4.4986	Inf	+0.9
412.21	1.0025E+6	4.4944	0.0401	-0.4
412.38	1.0030E+6	4.5014	0.0422	+361.3
412.56	1.0035E+6	4.5057	0.0406	+4.7
412.74	1.0040E+6	4.4958	0.0420	+361.1
412.94	1.0045E+6	4.4915	0.0406	+10.9
413.12	1.0050E+6	4.4986	Inf	-4.2
413.29	1.0055E+6	4.4944	0.0422	+5.2
413.49	1.0060E+6	4.4986	0.0398	-3.3
413.67	1.0065E+6	4.4944	0.0410	-362.2
413.86	1.0070E+6	4.4986	Inf	+5.3
414.02	1.0075E+6	4.5014	0.0397	+6.9
414.22	1.0080E+6	4.5014	0.0396	+2.4
414.37	1.0085E+6	4.4944	Inf	+1.5
414.52	1.0090E+6	4.4901	0.0390	+3.3
414.70	1.0095E+6	4.4930	0.0401	+2.4
414.87	1.0100E+6	4.5000	0.0393	+2.0
415.04	1.0105E+6	4.4944	Inf	-350.7
415.22	1.0110E+6	4.4915	Inf	+344.9
415.38	1.0115E+6	4.4958	Inf	+4.0
415.55	1.0120E+6	4.4901	Inf	-353.3
415.70	1.0125E+6	4.4944	0.0405	-0.7
415.90	1.0130E+6	4.4930	Inf	+2.9
416.07	1.0135E+6	4.4930	0.0407	-2.9
416.23	1.0140E+6	4.4930	Inf	+0.9
416.42	1.0145E+6	4.5000	0.0398	-4.4
416.58	1.0150E+6	4.4972	0.0397	+0.0
416.73	1.0155E+6	4.5029	0.0404	+5.1
416.92	1.0160E+6	4.4873	0.0407	+7.3
417.10	1.0165E+6	4.4930	0.0396	+7.0
417.28	1.0170E+6	4.4958	Inf	-4.4
417.45	1.0175E+6	4.4972	Inf	-11.7
417.63	1.0180E+6	4.4930	0.0400	+8.3
417.80	1.0185E+6	4.4972	Inf	-5.0
417.96	1.0190E+6	4.4915	Inf	+7.2
418.13	1.0195E+6	4.4930	Inf	-5.2
418.31	1.0200E+6	4.4944	Inf	+333.2
418.48	1.0205E+6	4.4873	Inf	+5.7
418.64	1.0210E+6	4.4901	Inf	-352.3
418.83	1.0215E+6	4.4944	0.0406	+360.4
419.01	1.0220E+6	4.5000	Inf	+325.7
419.16	1.0225E+6	4.4901	Inf	+10.9
419.33	1.0230E+6	4.4930	0.0405	-360.7
419.49	1.0235E+6	4.4986	0.0399	+7.4
419.66	1.0240E+6	4.5000	Inf	+363.5
419.81	1.0245E+6	4.4901	0.0386	+0.0
419.99	1.0250E+6	4.4944	0.0368	-7.8
420.16	1.0255E+6	4.4944	0.0412	-356.7
420.32	1.0260E+6	4.4986	Inf	+5.7
420.47	1.0265E+6	4.4887	0.0367	-3.0
420.66	1.0270E+6	4.4930	0.0397	+4.8
420.82	1.0275E+6	4.5000	Inf	-350.8
420.97	1.0280E+6	4.4930	0.0405	+357.0
421.15	1.0285E+6	4.4915	Inf	+354.2
421.31	1.0290E+6	4.4958	0.0402	+358.3
421.47	1.0295E+6	4.4915	0.0394	+6.7
421.62	1.0300E+6	4.4887	Inf	+7.2
421.79	1.0305E+6	4.4915	Inf	+360.6
421.94	1.0310E+6	4.4944	Inf	-1.5
422.09	1.0315E+6	4.4887	Inf	+2.4
422.27	1.0320E+6	4.4930	0.0396	-358.0
422.44	1.0325E+6	4.4901	0.0394	+5.7
422.60	1.0330E+6	4.4831	Inf	-13.1
422.77	1.0335E+6	4.4972	Inf	-0.9
422.97	1.0340E+6	4.4873	0.0386	-0.6
423.15	1.0345E+6	4.4859	Inf	-15.7
423.32	1.0350E+6	4.4930	0.0388	-0.4
423.50	1.0355E+6	4.4944	0.0395	-2.6
423.69	1.0360E+6	4.4930	Inf	+358.3
423.85	1.0365E+6	4.4901	0.0394	-0.9
424.02	1.0370E+6	4.4915	0.0396	+4.7
424.20	1.0375E+6	4.4816	Inf	-349.8
424.38	1.0380E+6	4.4944	0.0387	-4.5
424.58	1.0385E+6	4.4831	0.0405	+361.7
424.80	1.0390E+6	4.4915	Inf	-3.7
424.98	1.0395E+6	4.4944	Inf	-7.3
425.15	1.0400E+6	4.4831	Inf	+320.1
425.31	1.0405E+6	4.5000	0.0391	-357.6
425.53	1.0410E+6	4.4944	0.0400	-354.4
425.70	1.0415E+6	4.4831	Inf	-16.9
425.88	1.0420E+6	4.5043	Inf	-352.5
426.06	1.0425E+6	4.4986	0.0377	-0.6
426.26	1.0430E+6	4.4972	Inf	-14.3
426.43	1.0435E+6	4.4873	0.0387	-2.8
426.60	1.0440E+6	4.4901	Inf	-0.4
426.78	1.0445E+6	4.4859	0.0403	-3.2
426.96	1.0450E+6	4.4930	Inf	-0.9
427.13	1.0455E+6	4.4887	Inf	-352.1
427.29	1.0460E+6	4.4944	0.0395	-6.0
427.46	1.0465E+6	4.4972	Inf	+1.5
427.63	1.0470E+6	4.4915	0.0386	+1.5
427.81	1.0475E+6	4.4915	Inf	-6.2
427.98	1.0480E+6	4.4915	Inf	+0.8
428.16	1.0485E+6	4.4915	Inf	+369.6
428.32	1.0490E+6	4.4859	0.0385	-0.6
428.49	1.0495E+6	4.4859	Inf	+367.2
428.67	1.0500E+6	4.4915	Inf	-7.4
428.84	1.0505E+6	4.4887	Inf	+1.1
429.01	1.0510E+6	4.5000	0.0410	-365.3
429.19	1.0515E+6	4.5043	Inf	-1.3
429.37	1.0520E+6	4.5029	Inf	-6.1
429.54	1.0525E+6	4.5029	0.0384	+0.4
429.72	1.0530E+6	4.5043	Inf	-15.0
429.89	1.0535E+6	4.5043	Inf	-349.6
430.07	1.0540E+6	4.4986	0.0399	-7.2
430.25	1.0545E+6	4.5000	Inf	+348.0
430.42	1.0550E+6	4.5000	0.0392	+6.2
430.60	1.0555E+6	4.4972	0.0376	+0.2
430.77	1.0560E+6	4.5029	Inf	+0.6
430.94	1.0565E+6	4.5000	Inf	-12.8
431.08	1.0570E+6	4.5043	Inf	+349.4
431.27	1.0575E+6	4.5071	Inf	-12.0
431.43	1.0580E+6	4.5043	Inf	-1.3
431.60	1.0585E+6	4.4972	0.0382	+8.8
431.75	1.0590E+6	4.5099	0.0405	-361.5
431.95	1.0595E+6	4.5014	Inf	+363.8
432.10	1.0600E+6	4.5029	Inf	-13.1
432.25	1.0605E+6	4.5000	Inf	-365.5
432.41	1.0610E+6	4.5000	Inf	+355.0
432.56	1.0615E+6	4.4958	Inf	-354.1
432.71	1.0620E+6	4.5099	Inf	-4.4
432.86	1.0625E+6	4.5029	Inf	-346.5
433.03	1.0630E+6	4.5057	Inf	+359.8
433.18	1.0635E+6	4.5029	Inf	+365.9
433.33	1.0640E+6	4.5057	0.0356	-5.8
433.50	1.0645E+6	4.5029	0.0378	-355.0
433.68	1.0650E+6	4.4944	Inf	-1.5
