#date: 15.10.2020	time: 12:49:30
#t (s)	f (Hz)	A1 (V)	A2 (V)	phase (deg)
11.07	1.0000E+1	1.5248	Inf	+Inf
11.28	1.0100E+3	2.3677	0.0492	+123.9
11.53	2.0100E+3	2.3937	0.0999	+107.9
11.74	3.0100E+3	2.4414	0.1474	+112.9
11.99	4.0100E+3	2.5066	0.1951	+114.5
12.26	5.0100E+3	2.5842	0.2403	+120.7
12.56	6.0100E+3	2.6681	0.2820	+124.0
12.79	7.0100E+3	2.7564	0.3238	+127.3
13.01	8.0100E+3	2.8580	0.3614	+131.6
13.22	9.0100E+3	2.9639	0.3978	+136.3
13.44	1.0010E+4	3.0643	0.4326	+137.5
13.66	1.1010E+4	3.1485	0.4622	+139.0
13.87	1.2010E+4	3.2282	0.4902	+143.1
14.09	1.3010E+4	3.3132	0.5194	+144.2
14.32	1.4010E+4	3.3930	0.5457	+146.9
14.54	1.5010E+4	3.4627	0.5644	+149.8
14.76	1.6010E+4	3.5328	0.5862	+151.2
14.97	1.7010E+4	3.5918	0.6015	+152.7
15.19	1.8010E+4	3.6375	0.6172	+151.3
15.40	1.9010E+4	3.6820	0.6314	+154.6
15.62	2.0010E+4	3.7359	0.6467	+156.8
15.84	2.1010E+4	3.7887	0.6607	+155.6
16.07	2.2010E+4	3.8273	0.6732	+159.2
16.28	2.3010E+4	3.8721	0.6843	+159.1
16.50	2.4010E+4	3.9154	0.6944	+159.8
16.73	2.5010E+4	3.9510	0.7041	+159.7
16.95	2.6010E+4	3.9836	0.7133	+161.0
17.18	2.7010E+4	4.0174	0.7229	+162.3
17.41	2.8010E+4	4.0476	0.7310	+162.8
17.65	2.9010E+4	4.0724	0.7378	+163.1
17.88	3.0010E+4	4.0978	0.7447	+162.5
18.10	3.1010E+4	4.1237	0.7509	+162.5
18.33	3.2010E+4	4.1452	0.7570	+165.4
18.55	3.3010E+4	4.1675	0.7630	+163.3
18.75	3.4010E+4	4.1864	0.7685	+164.8
18.96	3.5010E+4	4.2080	0.7739	+165.4
19.18	3.6010E+4	4.2219	0.7784	+164.7
19.38	3.7010E+4	4.2373	0.7828	+166.2
19.61	3.8010E+4	4.2486	0.7866	+164.6
19.83	3.9010E+4	4.2629	0.7905	+166.8
20.06	4.0010E+4	4.2692	0.7939	+166.9
20.26	4.1010E+4	4.2817	0.7982	+167.1
20.48	4.2010E+4	4.2907	0.8007	+167.4
20.71	4.3010E+4	4.3001	0.8027	+167.8
20.91	4.4010E+4	4.3059	0.8065	+170.0
21.12	4.5010E+4	4.3159	0.8086	+168.8
21.34	4.6010E+4	4.3224	0.8129	+168.1
21.54	4.7010E+4	4.3298	0.8149	+169.0
21.76	4.8010E+4	4.3371	0.8170	+167.1
21.96	4.9010E+4	4.3445	0.8193	+170.0
22.19	5.0010E+4	4.3497	0.8219	+169.4
22.39	5.1010E+4	4.3566	0.8238	+168.2
22.57	5.2010E+4	4.3638	0.8265	+169.5
22.79	5.3010E+4	4.3689	0.8277	+171.1
23.00	5.4010E+4	4.3737	0.8303	+170.4
23.24	5.5010E+4	4.3776	0.8330	+169.4
23.42	5.6010E+4	4.3819	0.8350	+170.4
23.64	5.7010E+4	4.3913	0.8359	+170.5
23.85	5.8010E+4	4.3913	0.8381	+171.0
24.04	5.9010E+4	4.3971	0.8400	+170.2
24.23	6.0010E+4	4.4073	0.8432	+171.7
24.45	6.1010E+4	4.3996	0.8432	+169.9
24.63	6.2010E+4	4.4084	0.8453	+169.7
24.83	6.3010E+4	4.4104	0.8470	+171.2
25.02	6.4010E+4	4.4159	0.8491	+170.3
25.21	6.5010E+4	4.4153	0.8492	+169.4
25.41	6.6010E+4	4.4213	0.8512	+170.7
25.61	6.7010E+4	4.4239	0.8528	+171.4
25.80	6.8010E+4	4.4266	0.8545	+170.8
26.03	6.9010E+4	4.4293	0.8560	+171.4
26.25	7.0010E+4	4.4327	0.8573	+173.2
26.43	7.1010E+4	4.4336	0.8586	+172.3
26.65	7.2010E+4	4.4364	0.8613	+171.8
26.83	7.3010E+4	4.4416	0.8624	+173.3
27.03	7.4010E+4	4.4447	0.8637	+172.0
27.21	7.5010E+4	4.4446	0.8656	+172.5
27.41	7.6010E+4	4.4477	0.8665	+172.0
27.59	7.7010E+4	4.4525	0.8680	+172.5
27.79	7.8010E+4	4.4521	0.8692	+172.8
27.99	7.9010E+4	4.4551	0.8712	+171.4
28.21	8.0010E+4	4.4501	0.8734	+173.0
28.43	8.1010E+4	4.4565	0.8738	+173.2
28.64	8.2010E+4	4.4545	0.8754	+173.7
28.84	8.3010E+4	4.4638	0.8774	+173.1
29.07	8.4010E+4	4.4603	0.8795	+173.7
29.27	8.5010E+4	4.4614	0.8796	+173.5
29.46	8.6010E+4	4.4628	0.8825	+174.0
29.66	8.7010E+4	4.4634	0.8840	+175.6
29.87	8.8010E+4	4.4671	0.8853	+174.2
30.06	8.9010E+4	4.4716	0.8867	+175.6
30.24	9.0010E+4	4.4725	0.8873	+174.6
30.44	9.1010E+4	4.4699	0.8890	+175.1
30.62	9.2010E+4	4.4744	0.8919	+173.7
30.82	9.3010E+4	4.4754	0.8935	+174.4
31.04	9.4010E+4	4.4809	0.8946	+172.9
31.22	9.5010E+4	4.4774	0.8966	+175.5
31.42	9.6010E+4	4.4808	0.8979	+174.1
31.60	9.7010E+4	4.4788	0.8989	+174.8
31.82	9.8010E+4	4.4798	0.9009	+175.1
32.00	9.9010E+4	4.4825	0.9026	+174.4
32.20	1.0001E+5	4.4862	0.9037	+174.8
32.40	1.0101E+5	4.4825	0.9058	+174.0
32.62	1.0201E+5	4.4896	0.9069	+173.2
32.85	1.0301E+5	4.4843	0.9085	+176.0
33.03	1.0401E+5	4.4836	0.9109	+175.4
33.23	1.0501E+5	4.4848	0.9122	+171.1
33.41	1.0601E+5	4.4880	0.9134	+175.2
33.62	1.0701E+5	4.4886	0.9163	+175.7
33.83	1.0801E+5	4.4859	0.9175	+175.8
34.01	1.0901E+5	4.4883	0.9185	+173.4
34.23	1.1001E+5	4.4931	0.9208	+174.8
34.43	1.1101E+5	4.4952	0.9232	+176.3
34.61	1.1201E+5	4.4958	0.9245	+174.2
34.81	1.1301E+5	4.4999	0.9260	+174.3
34.99	1.1401E+5	4.4935	0.9276	+176.4
35.21	1.1501E+5	4.4948	0.9301	+174.9
35.41	1.1601E+5	4.5003	0.9313	+175.1
35.59	1.1701E+5	4.4958	0.9330	+174.1
35.81	1.1801E+5	4.5037	0.9364	+174.4
36.03	1.1901E+5	4.5023	0.9362	+173.3
36.21	1.2001E+5	4.5024	0.9390	+175.2
36.41	1.2101E+5	4.5050	0.9413	+176.1
36.62	1.2201E+5	4.4999	0.9420	+175.6
36.81	1.2301E+5	4.4986	0.9446	+176.0
37.01	1.2401E+5	4.5033	0.9461	+174.3
37.21	1.2501E+5	4.5034	0.9488	+175.4
37.41	1.2601E+5	4.5050	0.9512	+174.3
37.61	1.2701E+5	4.5088	0.9532	+174.9
37.80	1.2801E+5	4.5057	0.9550	+174.3
38.01	1.2901E+5	4.5057	0.9569	+173.0
38.19	1.3001E+5	4.5116	0.9587	+175.2
38.42	1.3101E+5	4.5085	0.9604	+175.7
38.64	1.3201E+5	4.5092	0.9638	+173.7
38.84	1.3301E+5	4.5123	0.9659	+175.1
39.05	1.3401E+5	4.5057	0.9677	+175.1
39.29	1.3501E+5	4.5106	0.9697	+175.1
39.48	1.3601E+5	4.5096	0.9733	+174.4
39.69	1.3701E+5	4.5118	0.9764	+176.6
39.92	1.3801E+5	4.5128	0.9776	+176.1
40.14	1.3901E+5	4.5128	0.9799	+177.0
40.32	1.4001E+5	4.5128	0.9817	+176.0
40.52	1.4101E+5	4.5170	0.9856	+174.0
40.72	1.4201E+5	4.5156	0.9894	+176.3
40.92	1.4301E+5	4.5170	0.9926	+176.8
41.12	1.4401E+5	4.5170	0.9952	+175.9
41.33	1.4501E+5	4.5142	0.9983	+175.4
41.53	1.4601E+5	4.5170	1.0008	+176.9
41.73	1.4701E+5	4.5156	1.0031	+176.6
41.93	1.4801E+5	4.5170	1.0058	+176.2
42.15	1.4901E+5	4.5198	1.0102	+176.0
42.36	1.5001E+5	4.5184	1.0117	+176.0
42.56	1.5101E+5	4.5212	1.0160	+175.9
42.76	1.5201E+5	4.5170	1.0192	+175.2
42.96	1.5301E+5	4.5184	1.0221	+175.2
43.16	1.5401E+5	4.5255	1.0242	+175.7
43.36	1.5501E+5	4.5184	1.0281	+177.3
43.58	1.5601E+5	4.5184	1.0307	+176.7
43.78	1.5701E+5	4.5198	1.0341	+174.5
43.98	1.5801E+5	4.5212	1.0379	+176.0
44.17	1.5901E+5	4.5255	1.0417	+175.6
44.37	1.6001E+5	4.5241	1.0448	+175.9
44.58	1.6101E+5	4.5212	1.0467	+176.1
44.78	1.6201E+5	4.5269	1.0501	+177.5
44.97	1.6301E+5	4.5241	1.0526	+177.5
45.17	1.6401E+5	4.5227	1.0547	+175.4
45.37	1.6501E+5	4.5255	1.0577	+176.1
45.59	1.6601E+5	4.5241	1.0621	+176.7
45.80	1.6701E+5	4.5255	1.0643	+176.6
46.01	1.6801E+5	4.5241	1.0676	+177.3
46.20	1.6901E+5	4.5269	1.0706	+177.1
46.40	1.7001E+5	4.5255	1.0718	+176.3
46.60	1.7101E+5	4.5255	1.0766	+178.1
46.82	1.7201E+5	4.5283	1.0799	+177.1
47.02	1.7301E+5	4.5255	1.0830	+176.6
47.22	1.7401E+5	4.5283	1.0847	+176.7
47.40	1.7501E+5	4.5297	1.0878	+176.1
47.60	1.7601E+5	4.5297	1.0904	+176.1
47.78	1.7701E+5	4.5311	1.0945	+175.5
47.98	1.7801E+5	4.5283	1.0967	+177.3
48.20	1.7901E+5	4.5340	1.1000	+177.2
48.40	1.8001E+5	4.5326	1.1029	+176.4
48.60	1.8101E+5	4.5227	1.1062	+176.4
48.81	1.8201E+5	4.5283	1.1085	+176.4
49.02	1.8301E+5	4.5340	1.1134	+176.5
49.21	1.8401E+5	4.5326	1.1150	+175.5
49.40	1.8501E+5	4.5297	1.1171	+176.3
49.61	1.8601E+5	4.5326	1.1219	+175.4
49.81	1.8701E+5	4.5326	1.1256	+174.0
50.01	1.8801E+5	4.5340	1.1308	+176.6
50.21	1.8901E+5	4.5311	1.1353	+176.3
50.43	1.9001E+5	4.5326	1.1391	+175.4
50.65	1.9101E+5	4.5354	1.1425	+174.7
50.84	1.9201E+5	4.5354	1.1475	+176.5
51.04	1.9301E+5	4.5311	1.1509	+176.7
51.26	1.9401E+5	4.5326	1.1539	+177.9
51.48	1.9501E+5	4.5354	1.1589	+177.9
51.68	1.9601E+5	4.5340	1.1636	+178.1
51.89	1.9701E+5	4.5311	1.1677	+177.8
52.09	1.9801E+5	4.5326	1.1724	+178.5
52.29	1.9901E+5	4.5354	1.1756	+179.1
52.49	2.0001E+5	4.5311	1.1807	+179.6
52.69	2.0101E+5	4.5354	1.1838	+178.7
52.89	2.0201E+5	4.5382	1.1911	+179.8
53.09	2.0301E+5	4.5354	1.1929	+178.7
53.29	2.0401E+5	4.5354	1.1973	+178.3
53.49	2.0501E+5	4.5382	1.2042	+180.3
53.69	2.0601E+5	4.5368	1.2070	+179.3
53.89	2.0701E+5	4.5311	1.2108	+178.6
54.09	2.0801E+5	4.5311	1.2171	+179.4
54.29	2.0901E+5	4.5326	1.2202	+179.4
54.50	2.1001E+5	4.5340	1.2257	+178.7
54.70	2.1101E+5	4.5340	1.2291	-179.7
54.90	2.1201E+5	4.5396	1.2340	+178.7
55.10	2.1301E+5	4.5354	1.2389	+178.7
55.32	2.1401E+5	4.5340	1.2455	+178.4
55.52	2.1501E+5	4.5354	1.2492	+179.8
55.73	2.1601E+5	4.5425	1.2503	+178.7
55.94	2.1701E+5	4.5396	1.2553	+179.2
56.17	2.1801E+5	4.5382	1.2623	+179.9
56.37	2.1901E+5	4.5354	1.2670	+177.1
56.58	2.2001E+5	4.5425	1.2736	+179.4
56.80	2.2101E+5	4.5382	1.2792	+177.8
57.02	2.2201E+5	4.5326	1.2833	+179.6
57.22	2.2301E+5	4.5425	1.2881	-180.3
57.45	2.2401E+5	4.5368	1.2963	+178.6
57.68	2.2501E+5	4.5382	1.2988	-179.8
57.88	2.2601E+5	4.5396	1.3076	+177.8
58.08	2.2701E+5	4.5410	1.3125	+181.0
58.31	2.2801E+5	4.5439	1.3189	+178.9
58.53	2.2901E+5	4.5453	1.3248	+179.2
58.73	2.3001E+5	4.5382	1.3311	-179.9
58.96	2.3101E+5	4.5382	1.3364	+178.5
59.16	2.3201E+5	4.5425	1.3424	+179.0
59.39	2.3301E+5	4.5368	1.3496	+178.8
59.63	2.3401E+5	4.5382	1.3547	+178.9
59.84	2.3501E+5	4.5410	1.3612	+179.0
60.06	2.3601E+5	4.5467	1.3704	+179.2
60.26	2.3701E+5	4.5396	1.3777	+178.5
60.48	2.3801E+5	4.5410	1.3873	-179.6
60.71	2.3901E+5	4.5439	1.3936	+177.3
60.91	2.4001E+5	4.5382	1.4050	+179.9
61.12	2.4101E+5	4.5368	1.4121	+179.5
61.34	2.4201E+5	4.5425	1.4220	-179.4
61.57	2.4301E+5	4.5439	1.4330	+180.5
61.79	2.4401E+5	4.5410	1.4424	-179.7
62.00	2.4501E+5	4.5439	1.4499	+179.6
62.20	2.4601E+5	4.5382	1.4558	+180.5
62.44	2.4701E+5	4.5453	1.4650	-179.4
62.65	2.4801E+5	4.5410	1.4730	+178.6
62.87	2.4901E+5	4.5368	1.4815	+180.0
63.10	2.5001E+5	4.5410	1.4893	-179.7
63.32	2.5101E+5	4.5425	1.5005	-179.0
63.52	2.5201E+5	4.5425	1.5057	+180.3
63.72	2.5301E+5	4.5410	1.5162	-178.0
63.92	2.5401E+5	4.5453	1.5257	+179.6
64.12	2.5501E+5	4.5439	1.5306	+179.3
64.32	2.5601E+5	4.5425	1.5399	+180.6
64.52	2.5701E+5	4.5425	1.5477	+179.6
64.72	2.5801E+5	4.5410	1.5551	-178.9
64.91	2.5901E+5	4.5410	1.5621	-179.7
65.11	2.6001E+5	4.5467	1.5733	+178.3
65.31	2.6101E+5	4.5467	1.5814	-178.5
65.51	2.6201E+5	4.5453	1.5901	-178.4
65.73	2.6301E+5	4.5396	1.5999	+177.3
65.95	2.6401E+5	4.5396	1.6135	+179.3
66.14	2.6501E+5	4.5410	1.6201	-177.5
66.36	2.6601E+5	4.5481	1.6338	+178.9
66.56	2.6701E+5	4.5382	1.6428	-178.4
66.79	2.6801E+5	4.5453	1.6510	-179.3
67.01	2.6901E+5	4.5425	1.6638	+178.5
67.23	2.7001E+5	4.5467	1.6760	+180.1
67.44	2.7101E+5	4.5425	1.6870	-177.8
67.64	2.7201E+5	4.5410	1.6968	-178.1
67.84	2.7301E+5	4.5410	1.7094	-178.5
68.04	2.7401E+5	4.5396	1.7186	-179.9
68.26	2.7501E+5	4.5453	1.7345	-178.9
68.47	2.7601E+5	4.5453	1.7443	-177.1
68.67	2.7701E+5	4.5410	1.7567	-177.5
68.87	2.7801E+5	4.5439	1.7692	-177.6
69.07	2.7901E+5	4.5481	1.7843	-176.9
69.27	2.8001E+5	4.5509	1.7929	-178.0
69.47	2.8101E+5	4.5410	1.8033	-179.2
69.67	2.8201E+5	4.5467	1.8188	-178.9
69.89	2.8301E+5	4.5467	1.8313	-177.4
70.09	2.8401E+5	4.5453	1.8489	-179.2
70.29	2.8501E+5	4.5396	1.8594	-178.1
70.50	2.8601E+5	4.5509	1.8748	-178.0
70.74	2.8701E+5	4.5439	1.8871	-178.2
70.94	2.8801E+5	4.5453	1.9003	-177.8
71.14	2.8901E+5	4.5495	1.9195	-177.5
71.33	2.9001E+5	4.5495	1.9337	-177.5
71.55	2.9101E+5	4.5396	1.9512	-176.3
71.78	2.9201E+5	4.5467	1.9714	-176.1
72.02	2.9301E+5	4.5382	1.9857	-179.4
72.25	2.9401E+5	4.5453	2.0039	-177.6
72.48	2.9501E+5	4.5425	2.0225	-176.4
72.68	2.9601E+5	4.5495	2.0465	-176.3
72.88	2.9701E+5	4.5538	2.0666	-175.0
73.08	2.9801E+5	4.5467	2.0796	-178.8
73.28	2.9901E+5	4.5396	2.1029	-177.5
73.51	3.0001E+5	4.5425	2.1189	-176.1
73.75	3.0101E+5	4.5453	2.1447	-176.6
73.96	3.0201E+5	4.5354	2.1605	-177.6
74.18	3.0301E+5	4.5396	2.1845	-178.4
74.39	3.0401E+5	4.5453	2.2046	-177.0
74.61	3.0501E+5	4.5467	2.2330	-176.8
74.81	3.0601E+5	4.5439	2.2439	-176.8
75.01	3.0701E+5	4.5467	2.2726	-176.5
75.21	3.0801E+5	4.5425	2.2924	-178.7
75.41	3.0901E+5	4.5495	2.3186	-176.1
75.61	3.1001E+5	4.5439	2.3354	-175.8
75.81	3.1101E+5	4.5354	2.3540	-176.9
76.04	3.1201E+5	4.5524	2.3807	-176.0
76.27	3.1301E+5	4.5425	2.4091	-175.6
76.49	3.1401E+5	4.5453	2.4357	-175.4
76.71	3.1501E+5	4.5453	2.4534	-174.0
76.92	3.1601E+5	4.5396	2.4802	-175.6
77.16	3.1701E+5	4.5481	2.5139	-173.7
77.37	3.1801E+5	4.5425	2.5372	-175.6
77.57	3.1901E+5	4.5509	2.5737	-174.1
77.79	3.2001E+5	4.5481	2.5983	-172.8
77.99	3.2101E+5	4.5481	2.6299	-174.0
78.19	3.2201E+5	4.5495	2.6593	-174.1
78.39	3.2301E+5	4.5453	2.6879	-172.3
78.58	3.2401E+5	4.5538	2.7212	-173.8
78.80	3.2501E+5	4.5396	2.7680	-174.7
79.03	3.2601E+5	4.5368	2.8054	-171.9
79.23	3.2701E+5	4.5439	2.8528	-174.4
79.45	3.2801E+5	4.5396	2.9000	-174.1
79.68	3.2901E+5	4.5509	2.9377	-174.1
79.92	3.3001E+5	4.5368	2.9732	-173.1
80.13	3.3101E+5	4.5368	3.0161	-172.1
80.33	3.3201E+5	4.5453	3.0495	-173.0
80.56	3.3301E+5	4.5467	3.0985	-171.7
80.76	3.3401E+5	4.5396	3.1339	-173.2
81.00	3.3501E+5	4.5524	3.1824	-172.6
81.23	3.3601E+5	4.5396	3.2309	-170.7
81.45	3.3701E+5	4.5439	3.2817	-169.9
81.66	3.3801E+5	4.5382	3.3322	-171.9
81.89	3.3901E+5	4.5509	3.3805	-172.0
82.11	3.4001E+5	4.5425	3.4375	-171.1
82.31	3.4101E+5	4.5495	3.4744	-168.9
82.51	3.4201E+5	4.5382	3.5262	-171.3
82.74	3.4301E+5	4.5439	3.5869	-169.4
82.98	3.4401E+5	4.5453	3.6522	-169.0
83.18	3.4501E+5	4.5410	3.7160	-169.3
83.38	3.4601E+5	4.5467	3.7689	-168.3
83.59	3.4701E+5	4.5382	3.8392	-168.9
83.83	3.4801E+5	4.5467	3.9130	-168.1
84.06	3.4901E+5	4.5396	3.9974	-168.6
84.29	3.5001E+5	4.5311	4.0905	-166.8
84.49	3.5101E+5	4.5396	4.1835	-167.3
84.69	3.5201E+5	4.5396	4.2677	-167.2
84.89	3.5301E+5	4.5340	4.3562	-164.5
85.11	3.5401E+5	4.5439	4.4481	-165.1
85.34	3.5501E+5	4.5368	4.5170	-165.1
85.57	3.5601E+5	4.5439	4.6231	-165.0
85.80	3.5701E+5	4.5297	4.7263	-163.7
86.02	3.5801E+5	4.5354	4.8310	-162.3
86.22	3.5901E+5	4.5354	4.9229	-162.2
86.42	3.6001E+5	4.5368	5.0388	-161.5
86.62	3.6101E+5	4.5396	5.1534	-161.2
86.82	3.6201E+5	4.5326	5.2821	-160.2
87.02	3.6301E+5	4.5368	5.4023	-159.6
87.22	3.6401E+5	4.5269	5.5381	-160.0
87.42	3.6501E+5	4.5354	5.6965	-159.5
87.62	3.6601E+5	4.5326	5.8492	-157.6
87.82	3.6701E+5	4.5227	6.0019	-156.7
88.02	3.6801E+5	4.5283	6.1957	-156.9
88.22	3.6901E+5	4.5255	6.3739	-155.6
88.42	3.7001E+5	4.5255	6.5563	-153.5
88.61	3.7101E+5	4.5198	6.7232	-154.5
88.81	3.7201E+5	4.5099	6.9098	-153.2
89.05	3.7301E+5	4.5208	7.1192	-151.7
89.26	3.7401E+5	4.5128	7.3115	-150.1
89.46	3.7501E+5	4.5156	7.5533	-147.3
89.66	3.7601E+5	4.5071	7.7824	-147.7
89.88	3.7701E+5	4.5154	8.0752	-144.5
90.11	3.7801E+5	4.5113	8.3750	-144.5
90.33	3.7901E+5	4.5014	8.6649	-141.0
90.53	3.8001E+5	4.5096	8.9081	-140.2
90.73	3.8101E+5	4.5041	9.1924	-137.9
90.93	3.8201E+5	4.4966	9.5021	-134.9
91.12	3.8301E+5	4.4958	9.7906	-134.2
91.33	3.8401E+5	4.4913	10.0734	-130.8
91.52	3.8501E+5	4.4894	10.3421	-128.4
91.72	3.8601E+5	4.4835	10.6292	-125.5
91.92	3.8701E+5	4.4766	10.8965	-122.1
92.16	3.8801E+5	4.4870	11.1907	-116.7
92.37	3.8901E+5	4.4816	11.4990	-116.2
92.59	3.9001E+5	4.4859	11.7705	-112.6
92.82	3.9101E+5	4.4657	11.9543	-107.6
93.04	3.9201E+5	4.4782	12.0788	-104.9
93.24	3.9301E+5	4.4717	12.1552	-100.8
93.44	3.9401E+5	4.4723	12.1834	-97.1
93.64	3.9501E+5	4.4799	12.1495	-95.8
93.84	3.9601E+5	4.4736	12.0901	-89.9
94.03	3.9701E+5	4.4716	11.9869	-87.3
94.23	3.9801E+5	4.4774	11.8327	-82.2
94.44	3.9901E+5	4.4737	11.6418	-77.1
94.64	4.0001E+5	4.4741	11.4000	-75.2
94.83	4.0101E+5	4.4780	11.1030	-72.2
95.03	4.0201E+5	4.4790	10.7749	-67.1
95.23	4.0301E+5	4.4860	10.3959	-65.2
95.47	4.0401E+5	4.4835	10.1088	-65.0
95.67	4.0501E+5	4.4870	9.7948	-59.6
95.87	4.0601E+5	4.4934	9.5134	-57.7
96.06	4.0701E+5	4.4907	9.2094	-54.4
96.27	4.0801E+5	4.4881	8.9194	-51.8
96.46	4.0901E+5	4.4918	8.6168	-50.0
96.66	4.1001E+5	4.4961	8.3495	-48.0
96.86	4.1101E+5	4.4930	8.0921	-48.6
97.06	4.1201E+5	4.4986	7.8036	-45.5
97.26	4.1301E+5	4.5023	7.5165	-44.7
97.46	4.1401E+5	4.5024	7.2280	-42.7
97.66	4.1501E+5	4.5055	7.0046	-39.5
97.86	4.1601E+5	4.5051	6.7783	-38.7
98.06	4.1701E+5	4.5089	6.5817	-38.2
98.26	4.1801E+5	4.5034	6.3965	-36.7
98.46	4.1901E+5	4.5063	6.2141	-35.8
98.66	4.2001E+5	4.5013	6.0288	-34.8
98.86	4.2101E+5	4.5136	5.8591	-34.3
99.09	4.2201E+5	4.5099	5.6668	-33.6
99.31	4.2301E+5	4.5082	5.5013	-32.5
99.51	4.2401E+5	4.5084	5.3429	-31.4
99.71	4.2501E+5	4.5072	5.1887	-31.7
99.91	4.2601E+5	4.5106	5.0516	-29.9
100.11	4.2701E+5	4.5163	4.9200	-31.5
100.32	4.2801E+5	4.5170	4.8112	-30.2
100.52	4.2901E+5	4.5142	4.6895	-28.3
100.74	4.3001E+5	4.5184	4.5863	-28.4
100.94	4.3101E+5	4.5170	4.4746	-26.5
101.14	4.3201E+5	4.5170	4.3497	-25.6
101.34	4.3301E+5	4.5269	4.2749	-25.6
101.54	4.3401E+5	4.5227	4.1841	-26.0
101.74	4.3501E+5	4.5269	4.0944	-25.2
101.94	4.3601E+5	4.5241	4.0018	-24.3
102.14	4.3701E+5	4.5241	3.8872	-25.5
102.35	4.3801E+5	4.5184	3.7907	-21.4
102.55	4.3901E+5	4.5269	3.7098	-23.1
102.75	4.4001E+5	4.5255	3.6368	-23.4
102.95	4.4101E+5	4.5255	3.5543	-23.8
103.15	4.4201E+5	4.5269	3.4942	-23.0
103.35	4.4301E+5	4.5212	3.4309	-22.4
103.55	4.4401E+5	4.5198	3.3660	-23.0
103.75	4.4501E+5	4.5283	3.3127	-22.3
103.95	4.4601E+5	4.5269	3.2452	-19.2
104.15	4.4701E+5	4.5212	3.1902	-20.7
104.35	4.4801E+5	4.5198	3.1364	-21.5
104.55	4.4901E+5	4.5269	3.0753	-20.8
104.75	4.5001E+5	4.5255	3.0212	-19.6
104.95	4.5101E+5	4.5283	2.9717	-19.1
105.15	4.5201E+5	4.5255	2.9287	-21.6
105.34	4.5301E+5	4.5241	2.8858	-19.7
105.55	4.5401E+5	4.5283	2.8358	-19.0
105.75	4.5501E+5	4.5297	2.7912	-18.1
105.94	4.5601E+5	4.5269	2.7291	-17.3
106.16	4.5701E+5	4.5255	2.6808	-17.4
106.36	4.5801E+5	4.5311	2.6263	-18.4
106.56	4.5901E+5	4.5326	2.5870	-18.1
106.76	4.6001E+5	4.5311	2.5532	-18.9
106.96	4.6101E+5	4.5269	2.5176	-20.3
107.16	4.6201E+5	4.5269	2.4718	-19.1
107.36	4.6301E+5	4.5311	2.4406	-17.3
107.56	4.6401E+5	4.5255	2.4063	-16.8
107.76	4.6501E+5	4.5326	2.3668	-16.5
107.96	4.6601E+5	4.5326	2.3395	-16.3
108.17	4.6701E+5	4.5283	2.3100	-17.2
108.37	4.6801E+5	4.5311	2.2741	-17.6
108.57	4.6901E+5	4.5283	2.2595	-17.0
108.77	4.7001E+5	4.5297	2.2243	-17.8
108.97	4.7101E+5	4.5297	2.1893	-15.1
109.17	4.7201E+5	4.5340	2.1663	-15.2
109.37	4.7301E+5	4.5311	2.1393	-16.1
109.57	4.7401E+5	4.5340	2.1145	-15.1
109.77	4.7501E+5	4.5297	2.0820	-16.7
109.97	4.7601E+5	4.5382	2.0657	-15.4
110.17	4.7701E+5	4.5326	2.0184	-16.1
110.37	4.7801E+5	4.5283	1.9959	-14.4
110.57	4.7901E+5	4.5326	1.9775	-14.0
110.77	4.8001E+5	4.5311	1.9481	-13.5
110.97	4.8101E+5	4.5297	1.9219	-17.1
111.17	4.8201E+5	4.5311	1.8982	-13.4
111.38	4.8301E+5	4.5354	1.8700	-14.2
111.58	4.8401E+5	4.5311	1.8502	-13.9
111.78	4.8501E+5	4.5297	1.8252	-13.7
111.98	4.8601E+5	4.5354	1.8149	-14.3
112.18	4.8701E+5	4.5340	1.7890	-14.6
112.38	4.8801E+5	4.5255	1.7750	-13.2
112.58	4.8901E+5	4.5326	1.7516	-14.2
112.78	4.9001E+5	4.5340	1.7381	-13.9
112.98	4.9101E+5	4.5382	1.7195	-13.1
113.18	4.9201E+5	4.5340	1.6920	-12.5
113.38	4.9301E+5	4.5340	1.6842	-12.4
113.58	4.9401E+5	4.5340	1.6720	-13.1
113.78	4.9501E+5	4.5269	1.6433	-12.8
113.98	4.9601E+5	4.5410	1.6319	-14.9
114.21	4.9701E+5	4.5283	1.6167	-12.1
114.43	4.9801E+5	4.5354	1.5968	-12.9
114.63	4.9901E+5	4.5354	1.5818	-14.3
114.83	5.0001E+5	4.5340	1.5612	-13.6
115.03	5.0101E+5	4.5326	1.5529	-13.0
115.22	5.0201E+5	4.5297	1.5404	-12.4
115.42	5.0301E+5	4.5382	1.5204	-13.5
115.62	5.0401E+5	4.5297	1.5064	-12.9
115.82	5.0501E+5	4.5354	1.4941	-12.7
116.02	5.0601E+5	4.5269	1.4880	-13.1
116.22	5.0701E+5	4.5311	1.4716	-12.2
116.42	5.0801E+5	4.5283	1.4586	-13.6
116.62	5.0901E+5	4.5354	1.4418	-10.1
116.82	5.1001E+5	4.5410	1.4231	-10.0
117.04	5.1101E+5	4.5410	1.4095	-14.6
117.24	5.1201E+5	4.5354	1.3967	-15.6
117.45	5.1301E+5	4.5368	1.3851	-12.5
117.65	5.1401E+5	4.5382	1.3683	-11.1
117.85	5.1501E+5	4.5340	1.3494	-13.9
118.05	5.1601E+5	4.5340	1.3393	-10.7
118.25	5.1701E+5	4.5368	1.3295	-9.6
118.45	5.1801E+5	4.5340	1.3209	-9.1
118.65	5.1901E+5	4.5340	1.3039	-11.3
118.85	5.2001E+5	4.5396	1.2898	-9.9
119.05	5.2101E+5	4.5368	1.2831	-13.1
119.25	5.2201E+5	4.5340	1.2608	-12.9
119.45	5.2301E+5	4.5297	1.2666	-11.2
119.65	5.2401E+5	4.5354	1.2516	-11.5
119.85	5.2501E+5	4.5368	1.2329	-13.2
120.05	5.2601E+5	4.5326	1.2352	-11.4
120.25	5.2701E+5	4.5269	1.2251	-10.9
120.45	5.2801E+5	4.5340	1.2118	-10.1
120.65	5.2901E+5	4.5340	1.2035	-11.9
120.85	5.3001E+5	4.5382	1.1937	-11.1
121.05	5.3101E+5	4.5368	1.1882	-10.5
121.25	5.3201E+5	4.5283	1.1779	-10.1
121.44	5.3301E+5	4.5382	1.1623	-10.3
121.64	5.3401E+5	4.5368	1.1550	-11.7
121.84	5.3501E+5	4.5311	1.1529	-10.7
122.03	5.3601E+5	4.5340	1.1489	-10.4
122.23	5.3701E+5	4.5410	1.1318	-12.2
122.46	5.3801E+5	4.5326	1.1240	-9.5
122.67	5.3901E+5	4.5382	1.1144	-11.3
122.87	5.4001E+5	4.5340	1.1020	-11.7
123.07	5.4101E+5	4.5283	1.0991	-12.7
123.28	5.4201E+5	4.5326	1.0933	-9.7
123.47	5.4301E+5	4.5311	1.0841	-13.2
123.67	5.4401E+5	4.5326	1.0786	-11.5
123.87	5.4501E+5	4.5297	1.0701	-9.7
124.07	5.4601E+5	4.5382	1.0665	-10.1
124.27	5.4701E+5	4.5297	1.0540	-11.0
124.49	5.4801E+5	4.5326	1.0495	-8.9
124.69	5.4901E+5	4.5340	1.0424	-10.0
124.89	5.5001E+5	4.5340	1.0362	-9.6
125.09	5.5101E+5	4.5326	1.0240	-12.2
125.29	5.5201E+5	4.5354	1.0175	-11.3
125.49	5.5301E+5	4.5354	1.0114	-10.7
125.69	5.5401E+5	4.5297	1.0027	-9.7
125.88	5.5501E+5	4.5340	0.9933	-11.1
126.08	5.5601E+5	4.5340	0.9861	-11.3
126.28	5.5701E+5	4.5311	0.9768	-12.0
126.50	5.5801E+5	4.5354	0.9692	-10.1
126.70	5.5901E+5	4.5269	0.9658	-11.0
126.90	5.6001E+5	4.5340	0.9553	-11.5
127.10	5.6101E+5	4.5340	0.9511	-9.5
127.30	5.6201E+5	4.5326	0.9446	-8.7
127.50	5.6301E+5	4.5283	0.9341	-11.9
127.70	5.6401E+5	4.5439	0.9300	-9.7
127.93	5.6501E+5	4.5283	0.9216	-10.0
128.16	5.6601E+5	4.5368	0.9171	-10.1
128.36	5.6701E+5	4.5297	0.9122	-11.1
128.56	5.6801E+5	4.5269	0.9067	-8.6
128.76	5.6901E+5	4.5311	0.8990	-11.0
128.96	5.7001E+5	4.5340	0.8993	-9.8
129.14	5.7101E+5	4.5396	0.8828	-11.0
129.34	5.7201E+5	4.5311	0.8847	-8.8
129.54	5.7301E+5	4.5311	0.8822	-10.1
129.74	5.7401E+5	4.5326	0.8703	-9.3
129.94	5.7501E+5	4.5283	0.8662	-10.1
130.14	5.7601E+5	4.5283	0.8632	-10.9
130.34	5.7701E+5	4.5311	0.8548	-9.0
130.54	5.7801E+5	4.5326	0.8559	-8.7
130.74	5.7901E+5	4.5340	0.8518	-10.1
130.94	5.8001E+5	4.5340	0.8433	-10.1
131.14	5.8101E+5	4.5283	0.8437	-8.0
131.32	5.8201E+5	4.5269	0.8325	-9.3
131.52	5.8301E+5	4.5255	0.8292	-10.1
131.72	5.8401E+5	4.5283	0.8260	-9.9
131.92	5.8501E+5	4.5311	0.8190	-9.0
132.12	5.8601E+5	4.5297	0.8143	-9.4
132.34	5.8701E+5	4.5241	0.8139	-9.5
132.52	5.8801E+5	4.5297	0.8094	-8.3
132.72	5.8901E+5	4.5311	0.8043	-10.8
132.92	5.9001E+5	4.5297	0.7978	-10.6
133.12	5.9101E+5	4.5283	0.7968	-8.7
133.30	5.9201E+5	4.5311	0.7863	-9.3
133.50	5.9301E+5	4.5326	0.7829	-9.9
133.70	5.9401E+5	4.5368	0.7806	-8.7
133.90	5.9501E+5	4.5255	0.7765	-8.1
134.12	5.9601E+5	4.5297	0.7709	-9.8
134.32	5.9701E+5	4.5198	0.7633	-8.9
134.52	5.9801E+5	4.5311	0.7640	-8.3
134.70	5.9901E+5	4.5269	0.7573	-11.1
134.90	6.0001E+5	4.5297	0.7488	-8.9
135.10	6.0101E+5	4.5255	0.7474	-7.7
135.30	6.0201E+5	4.5326	0.7476	-9.7
135.48	6.0301E+5	4.5297	0.7416	-8.6
135.68	6.0401E+5	4.5255	0.7337	-8.6
135.88	6.0501E+5	4.5283	0.7316	-8.9
136.06	6.0601E+5	4.5340	0.7279	-8.9
136.26	6.0701E+5	4.5326	0.7221	-7.6
136.46	6.0801E+5	4.5255	0.7215	-8.6
136.65	6.0901E+5	4.5283	0.7180	-9.4
136.84	6.1001E+5	4.5283	0.7046	-9.7
137.04	6.1101E+5	4.5269	0.7054	-8.9
137.23	6.1201E+5	4.5283	0.7064	-10.7
137.43	6.1301E+5	4.5227	0.6998	-10.4
137.63	6.1401E+5	4.5241	0.6908	-8.2
137.83	6.1501E+5	4.5283	0.6916	-8.1
138.01	6.1601E+5	4.5241	0.6889	-8.1
138.19	6.1701E+5	4.5326	0.6866	-8.0
138.39	6.1801E+5	4.5269	0.6808	-7.2
138.59	6.1901E+5	4.5269	0.6771	-7.7
138.79	6.2001E+5	4.5241	0.6754	-9.2
138.97	6.2101E+5	4.5340	0.6722	-6.9
139.17	6.2201E+5	4.5297	0.6674	-9.1
139.37	6.2301E+5	4.5311	0.6638	-7.0
139.57	6.2401E+5	4.5241	0.6623	-9.9
139.77	6.2501E+5	4.5255	0.6576	-6.6
139.96	6.2601E+5	4.5255	0.6558	-7.6
140.14	6.2701E+5	4.5297	0.6552	-8.2
140.32	6.2801E+5	4.5212	0.6486	-9.2
140.50	6.2901E+5	4.5212	0.6466	-8.9
140.67	6.3001E+5	4.5227	0.6435	-7.6
140.85	6.3101E+5	4.5297	0.6399	-8.0
141.03	6.3201E+5	4.5241	0.6380	-10.9
141.20	6.3301E+5	4.5241	0.6337	-9.7
141.38	6.3401E+5	4.5255	0.6324	-8.4
141.55	6.3501E+5	4.5227	0.6240	-7.7
141.75	6.3601E+5	4.5241	0.6230	-7.7
141.95	6.3701E+5	4.5227	0.6215	-6.9
142.15	6.3801E+5	4.5255	0.6198	-8.3
142.35	6.3901E+5	4.5227	0.6186	-8.7
142.53	6.4001E+5	4.5227	0.6129	-6.7
142.73	6.4101E+5	4.5198	0.6132	-10.1
142.91	6.4201E+5	4.5227	0.6083	-7.2
143.12	6.4301E+5	4.5156	0.6074	-9.1
143.30	6.4401E+5	4.5269	0.6002	-7.6
143.50	6.4501E+5	4.5198	0.6005	-8.0
143.68	6.4601E+5	4.5241	0.5964	-8.0
143.88	6.4701E+5	4.5198	0.5937	-9.0
144.08	6.4801E+5	4.5227	0.5928	-6.6
144.26	6.4901E+5	4.5184	0.5896	-5.4
144.46	6.5001E+5	4.5227	0.5887	-9.9
144.65	6.5101E+5	4.5212	0.5827	-10.5
144.84	6.5201E+5	4.5241	0.5879	-8.0
145.04	6.5301E+5	4.5198	0.5781	-7.3
145.24	6.5401E+5	4.5241	0.5797	-8.3
145.44	6.5501E+5	4.5255	0.5739	-7.7
145.64	6.5601E+5	4.5283	0.5725	-6.9
145.84	6.5701E+5	4.5212	0.5677	-7.8
146.04	6.5801E+5	4.5198	0.5646	-6.2
146.24	6.5901E+5	4.5241	0.5627	-7.8
146.44	6.6001E+5	4.5170	0.5590	-7.0
146.64	6.6101E+5	4.5170	0.5585	-7.9
146.84	6.6201E+5	4.5184	0.5559	-9.1
147.02	6.6301E+5	4.5156	0.5542	-6.3
147.22	6.6401E+5	4.5227	0.5555	-8.2
147.41	6.6501E+5	4.5241	0.5463	-9.1
147.60	6.6601E+5	4.5198	0.5453	-7.6
147.79	6.6701E+5	4.5241	0.5408	-7.0
147.99	6.6801E+5	4.5255	0.5411	-9.1
148.17	6.6901E+5	4.5184	0.5392	-6.5
148.35	6.7001E+5	4.5227	0.5358	-7.6
148.55	6.7101E+5	4.5227	0.5375	-10.1
148.75	6.7201E+5	4.5170	0.5329	-7.5
148.95	6.7301E+5	4.5184	0.5326	-8.0
149.14	6.7401E+5	4.5184	0.5298	-8.0
149.34	6.7501E+5	4.5227	0.5275	-8.4
149.53	6.7601E+5	4.5227	0.5238	-7.6
149.74	6.7701E+5	4.5255	0.5254	-8.7
149.93	6.7801E+5	4.5241	0.5196	-8.2
150.13	6.7901E+5	4.5241	0.5192	-8.2
150.32	6.8001E+5	4.5184	0.5180	-9.6
150.52	6.8101E+5	4.5198	0.5141	-8.7
150.72	6.8201E+5	4.5227	0.5131	-8.9
150.91	6.8301E+5	4.5212	0.5111	-7.7
151.10	6.8401E+5	4.5255	0.5081	-7.6
151.30	6.8501E+5	4.5227	0.5061	-8.0
151.50	6.8601E+5	4.5212	0.5037	-6.9
151.70	6.8701E+5	4.5212	0.5061	-8.0
151.90	6.8801E+5	4.5212	0.5016	-7.5
152.10	6.8901E+5	4.5227	0.4991	-6.5
152.30	6.9001E+5	4.5212	0.4964	-8.1
152.50	6.9101E+5	4.5269	0.4941	-9.4
152.68	6.9201E+5	4.5227	0.4920	-6.2
152.88	6.9301E+5	4.5241	0.4892	-8.4
153.08	6.9401E+5	4.5198	0.4896	-9.2
153.26	6.9501E+5	4.5142	0.4838	-9.8
153.46	6.9601E+5	4.5227	0.4831	-5.6
153.64	6.9701E+5	4.5184	0.4805	-6.2
153.84	6.9801E+5	4.5184	0.4776	-9.4
154.04	6.9901E+5	4.5142	0.4767	-9.6
154.22	7.0001E+5	4.5212	0.4732	-8.9
154.42	7.0101E+5	4.5212	0.4705	-8.6
154.62	7.0201E+5	4.5184	0.4671	-7.3
154.82	7.0301E+5	4.5198	0.4668	-5.5
155.01	7.0401E+5	4.5227	0.4682	-7.0
155.21	7.0501E+5	4.5170	0.4651	-4.6
155.41	7.0601E+5	4.5241	0.4623	-7.5
155.60	7.0701E+5	4.5212	0.4612	-8.5
155.79	7.0801E+5	4.5227	0.4598	-8.2
155.97	7.0901E+5	4.5198	0.4554	-7.3
156.17	7.1001E+5	4.5212	0.4545	-9.0
156.35	7.1101E+5	4.5128	0.4542	-7.0
156.54	7.1201E+5	4.5170	0.4535	-7.1
156.74	7.1301E+5	4.5198	0.4492	-8.1
156.94	7.1401E+5	4.5255	0.4492	-7.9
157.12	7.1501E+5	4.5170	0.4469	-8.8
157.32	7.1601E+5	4.5184	0.4461	-8.9
157.50	7.1701E+5	4.5227	0.4455	-8.4
157.68	7.1801E+5	4.5198	0.4433	-6.7
157.88	7.1901E+5	4.5227	0.4419	-6.2
158.08	7.2001E+5	4.5255	0.4406	-9.0
158.27	7.2101E+5	4.5198	0.4367	-6.5
158.47	7.2201E+5	4.5184	0.4381	-5.2
158.66	7.2301E+5	4.5227	0.4369	-7.0
158.87	7.2401E+5	4.5241	0.4341	-6.7
159.06	7.2501E+5	4.5255	0.4326	-7.2
159.25	7.2601E+5	4.5198	0.4315	-6.9
159.43	7.2701E+5	4.5227	0.4291	-6.6
159.63	7.2801E+5	4.5241	0.4278	-6.5
159.83	7.2901E+5	4.5170	0.4267	-8.3
160.01	7.3001E+5	4.5198	0.4270	-8.0
160.19	7.3101E+5	4.5212	0.4237	-5.8
160.40	7.3201E+5	4.5142	0.4223	-7.7
160.59	7.3301E+5	4.5184	0.4210	-8.6
160.76	7.3401E+5	4.5212	0.4188	-8.5
160.96	7.3501E+5	4.5198	0.4176	-5.4
161.14	7.3601E+5	4.5184	0.4170	-8.9
161.34	7.3701E+5	4.5255	0.4164	-8.1
161.53	7.3801E+5	4.5170	0.4140	-6.0
161.73	7.3901E+5	4.5184	0.4118	-7.0
161.91	7.4001E+5	4.5170	0.4126	-7.9
162.09	7.4101E+5	4.5184	0.4094	-8.1
162.29	7.4201E+5	4.5156	0.4100	-9.3
162.47	7.4301E+5	4.5142	0.4081	-8.7
162.67	7.4401E+5	4.5142	0.4077	-9.8
162.86	7.4501E+5	4.5170	0.4050	-7.4
163.06	7.4601E+5	4.5128	0.4041	-8.2
163.24	7.4701E+5	4.5198	0.4033	-5.2
163.42	7.4801E+5	4.5241	0.4011	-7.8
163.62	7.4901E+5	4.5227	0.4007	-6.1
163.81	7.5001E+5	4.5156	0.3990	-7.0
164.00	7.5101E+5	4.5198	0.3966	-8.2
164.20	7.5201E+5	4.5184	0.3961	-5.1
164.39	7.5301E+5	4.5198	0.3953	-5.8
164.57	7.5401E+5	4.5184	0.3936	-7.3
164.77	7.5501E+5	4.5227	0.3925	-5.4
164.95	7.5601E+5	4.5184	0.3910	-6.5
165.15	7.5701E+5	4.5184	0.3893	-8.2
165.34	7.5801E+5	4.5212	0.3900	-5.7
165.52	7.5901E+5	4.5128	0.3868	-3.7
165.72	7.6001E+5	4.5184	0.3871	-7.9
165.90	7.6101E+5	4.5184	0.3849	-7.3
166.10	7.6201E+5	4.5198	0.3842	-7.8
166.28	7.6301E+5	4.5142	0.3826	-6.2
166.48	7.6401E+5	4.5255	0.3806	-5.2
166.66	7.6501E+5	4.5170	0.3803	-9.6
166.87	7.6601E+5	4.5156	0.3782	-6.5
167.03	7.6701E+5	4.5241	0.3810	-9.8
167.23	7.6801E+5	4.5184	0.3779	-7.1
167.43	7.6901E+5	4.5198	0.3776	-8.7
167.61	7.7001E+5	4.5128	0.3736	-7.2
167.81	7.7101E+5	4.5198	0.3733	-5.1
168.00	7.7201E+5	4.5128	0.3719	-5.8
168.19	7.7301E+5	4.5212	0.3702	-8.0
168.38	7.7401E+5	4.5113	0.3691	-6.6
168.59	7.7501E+5	4.5215	0.3677	-7.4
168.79	7.7601E+5	4.5170	0.3657	-7.3
168.99	7.7701E+5	4.5227	0.3645	-5.6
169.18	7.7801E+5	4.5184	0.3644	-5.3
169.36	7.7901E+5	4.5156	0.3631	-7.1
169.56	7.8001E+5	4.5170	0.3610	-3.4
169.74	7.8101E+5	4.5099	0.3587	-9.4
169.96	7.8201E+5	4.5078	0.3593	-6.9
170.14	7.8301E+5	4.5112	0.3577	-8.3
170.34	7.8401E+5	4.5190	0.3571	-5.6
170.54	7.8501E+5	4.5212	0.3571	-4.8
170.72	7.8601E+5	4.5099	0.3541	-9.9
170.94	7.8701E+5	4.5252	0.3543	-8.1
171.14	7.8801E+5	4.5128	0.3536	-7.4
171.32	7.8901E+5	4.5128	0.3516	-6.5
171.52	7.9001E+5	4.5156	0.3493	-5.1
171.71	7.9101E+5	4.5099	0.3497	-6.3
171.92	7.9201E+5	4.5152	0.3491	-7.4
172.14	7.9301E+5	4.5085	0.3464	-6.3
172.35	7.9401E+5	4.5194	0.3463	-8.2
172.55	7.9501E+5	4.5156	0.3447	-7.7
172.74	7.9601E+5	4.5198	0.3450	-8.5
172.92	7.9701E+5	4.5198	0.3428	-6.9
173.12	7.9801E+5	4.5043	0.3415	-4.9
173.32	7.9901E+5	4.5041	0.3403	-5.9
173.52	8.0001E+5	4.5181	0.3392	-4.9
173.72	8.0101E+5	4.5113	0.3377	-5.1
173.95	8.0201E+5	4.5050	0.3370	-7.2
174.13	8.0301E+5	4.5194	0.3367	-4.8
174.33	8.0401E+5	4.5085	0.3346	-4.5
174.55	8.0501E+5	4.5217	0.3348	-8.2
174.75	8.0601E+5	4.5184	0.3338	-7.7
174.93	8.0701E+5	4.5085	0.3315	-9.7
175.13	8.0801E+5	4.5245	0.3318	-7.1
175.33	8.0901E+5	4.5099	0.3307	-7.3
175.53	8.1001E+5	4.5136	0.3295	-8.8
175.73	8.1101E+5	4.5156	0.3274	-8.9
175.93	8.1201E+5	4.5128	0.3271	-5.1
176.11	8.1301E+5	4.5184	0.3260	-9.4
176.31	8.1401E+5	4.5142	0.3257	-6.9
176.49	8.1501E+5	4.5071	0.3244	-6.0
176.69	8.1601E+5	4.5147	0.3232	-5.3
176.91	8.1701E+5	4.5113	0.3223	-5.3
177.11	8.1801E+5	4.5136	0.3216	-8.2
177.29	8.1901E+5	4.5085	0.3217	-7.2
177.49	8.2001E+5	4.5119	0.3210	-7.4
177.71	8.2101E+5	4.5142	0.3216	-7.7
177.91	8.2201E+5	4.5198	0.3186	-5.5
178.11	8.2301E+5	4.5128	0.3177	-7.6
178.31	8.2401E+5	4.5071	0.3172	-5.6
178.51	8.2501E+5	4.5135	0.3170	-8.8
178.71	8.2601E+5	4.5113	0.3153	-7.6
178.91	8.2701E+5	4.5113	0.3144	-5.8
179.09	8.2801E+5	4.5078	0.3135	-5.4
179.27	8.2901E+5	4.5132	0.3119	-3.1
179.49	8.3001E+5	4.5170	0.3127	-8.4
179.69	8.3101E+5	4.5142	0.3113	-7.5
179.89	8.3201E+5	4.5071	0.3111	-9.1
180.09	8.3301E+5	4.5071	0.3102	-5.3
180.27	8.3401E+5	4.5139	0.3104	-6.5
180.45	8.3501E+5	4.5113	0.3069	-6.3
180.67	8.3601E+5	4.5120	0.3071	-6.6
180.88	8.3701E+5	4.5170	0.3068	-6.2
181.08	8.3801E+5	4.5113	0.3050	-4.8
181.28	8.3901E+5	4.5135	0.3052	-7.4
181.48	8.4001E+5	4.5085	0.3044	-8.3
181.68	8.4101E+5	4.5050	0.3038	-4.2
181.87	8.4201E+5	4.5082	0.3025	-6.8
182.05	8.4301E+5	4.5085	0.3024	-9.3
182.23	8.4401E+5	4.5153	0.3008	-5.9
182.45	8.4501E+5	4.5128	0.3012	-6.1
182.63	8.4601E+5	4.5085	0.2990	-7.6
182.83	8.4701E+5	4.5115	0.2991	-5.5
183.01	8.4801E+5	4.5184	0.2982	-6.4
183.21	8.4901E+5	4.5099	0.2974	-8.4
183.41	8.5001E+5	4.5118	0.2972	-6.4
183.61	8.5101E+5	4.5099	0.2953	-6.0
183.83	8.5201E+5	4.5038	0.2962	-8.0
184.03	8.5301E+5	4.5060	0.2948	-3.7
184.21	8.5401E+5	4.5123	0.2931	-6.3
184.41	8.5501E+5	4.5057	0.2925	-6.2
184.63	8.5601E+5	4.5074	0.2917	-5.2
184.79	8.5701E+5	4.5087	0.2919	-7.4
184.97	8.5801E+5	4.5088	0.2920	-7.4
185.16	8.5901E+5	4.5171	0.2901	-6.0
185.32	8.6001E+5	4.5000	0.2899	-7.6
185.52	8.6101E+5	4.5104	0.2882	-7.3
185.72	8.6201E+5	4.5091	0.2875	-4.7
185.91	8.6301E+5	4.5101	0.2887	-8.4
186.09	8.6401E+5	4.5070	0.2876	-7.2
186.25	8.6501E+5	4.5078	0.2856	-4.2
186.46	8.6601E+5	4.5082	0.2844	-3.9
186.64	8.6701E+5	4.5074	0.2837	-6.2
186.84	8.6801E+5	4.5088	0.2831	-7.6
187.02	8.6901E+5	4.5099	0.2836	-7.8
187.19	8.7001E+5	4.5112	0.2814	-8.8
187.39	8.7101E+5	4.5031	0.2810	-2.3
187.55	8.7201E+5	4.5132	0.2810	-6.6
187.75	8.7301E+5	4.5113	0.2800	-9.4
187.97	8.7401E+5	4.5051	0.2797	-9.1
188.14	8.7501E+5	4.5031	0.2789	-9.2
188.34	8.7601E+5	4.5055	0.2779	-6.9
188.52	8.7701E+5	4.5074	0.2762	-6.5
188.72	8.7801E+5	4.5095	0.2752	-4.4
188.88	8.7901E+5	4.5099	0.2747	-8.4
189.08	8.8001E+5	4.5071	0.2759	-3.3
189.28	8.8101E+5	4.5037	0.2744	-4.9
189.48	8.8201E+5	4.5016	0.2736	-6.7
189.68	8.8301E+5	4.5026	0.2737	-6.4
189.87	8.8401E+5	4.5091	0.2731	-6.2
190.06	8.8501E+5	4.5043	0.2720	-5.1
190.26	8.8601E+5	4.5084	0.2723	-6.7
190.46	8.8701E+5	4.5037	0.2704	-8.9
190.65	8.8801E+5	4.4992	0.2706	-5.7
190.81	8.8901E+5	4.5108	0.2706	-4.5
191.00	8.9001E+5	4.5046	0.2686	-5.6
191.20	8.9101E+5	4.5053	0.2690	-6.6
191.36	8.9201E+5	4.5101	0.2685	-8.5
191.54	8.9301E+5	4.5091	0.2682	-7.7
191.73	8.9401E+5	4.5043	0.2670	-7.4
191.93	8.9501E+5	4.5019	0.2667	-4.8
192.09	8.9601E+5	4.5071	0.2660	-4.5
192.29	8.9701E+5	4.5021	0.2652	-5.3
192.49	8.9801E+5	4.4996	0.2656	-6.6
192.69	8.9901E+5	4.5085	0.2652	-8.1
192.86	9.0001E+5	4.4972	0.2643	-8.3
193.06	9.0101E+5	4.5072	0.2633	-8.9
193.26	9.0201E+5	4.5102	0.2632	-4.4
193.44	9.0301E+5	4.5046	0.2620	-5.7
193.62	9.0401E+5	4.4972	0.2616	-4.1
193.81	9.0501E+5	4.5106	0.2602	-6.4
194.01	9.0601E+5	4.5108	0.2610	-8.7
194.19	9.0701E+5	4.5095	0.2598	-5.5
194.39	9.0801E+5	4.5034	0.2596	-7.2
194.57	9.0901E+5	4.5058	0.2577	-5.7
194.77	9.1001E+5	4.5017	0.2571	-5.1
194.94	9.1101E+5	4.5046	0.2562	-6.4
195.14	9.1201E+5	4.4995	0.2554	-4.9
195.32	9.1301E+5	4.5041	0.2548	-6.9
195.52	9.1401E+5	4.5111	0.2551	-8.2
195.69	9.1501E+5	4.4931	0.2539	-7.1
195.89	9.1601E+5	4.4997	0.2540	-4.1
196.09	9.1701E+5	4.5068	0.2531	-5.9
196.27	9.1801E+5	4.5007	0.2520	-6.8
196.47	9.1901E+5	4.5037	0.2513	-5.3
196.65	9.2001E+5	4.5070	0.2515	-7.6
196.83	9.2101E+5	4.5088	0.2505	-3.8
197.02	9.2201E+5	4.5061	0.2510	-8.5
197.20	9.2301E+5	4.5017	0.2492	-3.8
197.40	9.2401E+5	4.5013	0.2498	-7.0
197.58	9.2501E+5	4.5075	0.2478	-8.3
197.78	9.2601E+5	4.5046	0.2473	-7.2
197.96	9.2701E+5	4.5037	0.2462	-7.7
198.15	9.2801E+5	4.4927	0.2454	-6.7
198.33	9.2901E+5	4.4995	0.2454	-5.3
198.51	9.3001E+5	4.5021	0.2438	-6.9
198.71	9.3101E+5	4.5003	0.2427	-4.5
198.88	9.3201E+5	4.4971	0.2434	-7.9
199.06	9.3301E+5	4.5061	0.2426	-6.7
199.24	9.3401E+5	4.5061	0.2423	-8.7
199.43	9.3501E+5	4.5058	0.2415	-6.9
199.61	9.3601E+5	4.4965	0.2410	-8.3
199.81	9.3701E+5	4.5037	0.2397	-7.6
199.98	9.3801E+5	4.5074	0.2378	-6.1
200.18	9.3901E+5	4.5047	0.2382	-3.2
200.36	9.4001E+5	4.5014	0.2368	-6.8
200.54	9.4101E+5	4.4985	0.2369	-8.0
200.72	9.4201E+5	4.5003	0.2366	-6.4
200.91	9.4301E+5	4.5016	0.2374	-10.7
201.09	9.4401E+5	4.5067	0.2361	-8.3
201.29	9.4501E+5	4.4961	0.2346	-6.1
201.49	9.4601E+5	4.4988	0.2332	-7.5
201.67	9.4701E+5	4.4978	0.2333	-6.3
201.85	9.4801E+5	4.5009	0.2335	-3.9
202.04	9.4901E+5	4.4966	0.2344	-7.0
202.22	9.5001E+5	4.4966	0.2328	-5.1
202.42	9.5101E+5	4.4904	0.2313	-6.2
202.62	9.5201E+5	4.5046	0.2338	-7.0
202.80	9.5301E+5	4.5043	0.2312	-3.9
203.00	9.5401E+5	4.4990	0.2311	-5.0
203.19	9.5501E+5	4.4990	0.2293	-5.7
203.37	9.5601E+5	4.5053	0.2307	-6.0
203.57	9.5701E+5	4.4990	0.2304	-5.0
203.75	9.5801E+5	4.4968	0.2295	-7.1
203.94	9.5901E+5	4.5030	0.2282	-3.4
204.13	9.6001E+5	4.4964	0.2273	-5.4
204.32	9.6101E+5	4.5012	0.2268	-7.1
204.50	9.6201E+5	4.4938	0.2275	-3.1
204.70	9.6301E+5	4.4930	0.2261	-5.9
204.90	9.6401E+5	4.4932	0.2257	-3.1
205.06	9.6501E+5	4.4952	0.2253	-7.4
205.26	9.6601E+5	4.4992	0.2252	-3.8
205.45	9.6701E+5	4.4988	0.2235	-7.6
205.63	9.6801E+5	4.5026	0.2240	-4.2
205.81	9.6901E+5	4.4914	0.2242	-6.3
206.00	9.7001E+5	4.4996	0.2234	-5.8
206.20	9.7101E+5	4.4937	0.2242	-6.8
206.40	9.7201E+5	4.5006	0.2232	-7.9
206.58	9.7301E+5	4.4927	0.2235	-4.4
206.76	9.7401E+5	4.4863	0.2222	-6.5
206.96	9.7501E+5	4.5014	0.2207	-6.5
207.15	9.7601E+5	4.4997	0.2211	-5.6
207.33	9.7701E+5	4.4930	0.2216	-10.4
207.53	9.7801E+5	4.4915	0.2192	-5.5
207.71	9.7901E+5	4.4972	0.2190	-9.8
207.89	9.8001E+5	4.4930	0.2191	-6.5
208.06	9.8101E+5	4.5029	0.2179	-6.5
208.26	9.8201E+5	4.4944	0.2193	-6.7
208.46	9.8301E+5	4.4944	0.2171	-4.6
208.64	9.8401E+5	4.4944	0.2186	-8.3
208.84	9.8501E+5	4.4915	0.2167	-7.8
209.02	9.8601E+5	4.4958	0.2165	-6.8
209.21	9.8701E+5	4.4915	0.2156	-6.9
209.41	9.8801E+5	4.4845	0.2163	-5.8
209.59	9.8901E+5	4.4930	0.2148	-5.9
209.79	9.9001E+5	4.4915	0.2165	-3.5
209.99	9.9101E+5	4.4930	0.2163	-4.5
210.16	9.9201E+5	4.5029	0.2145	-5.9
210.35	9.9301E+5	4.4901	0.2136	-7.2
210.54	9.9401E+5	4.4930	0.2136	-5.7
210.72	9.9501E+5	4.4887	0.2129	-4.8
210.89	9.9601E+5	4.4887	0.2127	-9.0
211.07	9.9701E+5	4.4930	0.2125	-4.7
211.25	9.9801E+5	4.4958	0.2149	-5.2
211.44	9.9901E+5	4.4873	0.2112	-5.7
211.63	1.0000E+6	4.4915	0.2113	-6.7
211.82	1.0010E+6	4.4915	0.2104	-5.2
211.97	1.0020E+6	4.4915	0.2117	-6.5
212.17	1.0030E+6	4.4831	0.2119	-8.3
212.33	1.0040E+6	4.4958	0.2094	-9.9
212.55	1.0050E+6	4.4887	0.2093	-8.1
212.72	1.0060E+6	4.4873	0.2077	-6.9
212.90	1.0070E+6	4.4986	0.2091	-7.3
213.10	1.0080E+6	4.4972	0.2086	-8.0
213.28	1.0090E+6	4.4873	0.2071	-6.2
213.48	1.0100E+6	4.4901	0.2074	-7.1
213.68	1.0110E+6	4.4845	0.2066	-4.9
213.85	1.0120E+6	4.4887	0.2061	-7.3
214.03	1.0130E+6	4.4901	0.2083	-6.4
214.21	1.0140E+6	4.4845	0.2061	-5.9
214.41	1.0150E+6	4.4887	0.2053	-7.1
214.59	1.0160E+6	4.4845	0.2037	-5.8
214.79	1.0170E+6	4.4859	0.2052	-8.2
215.00	1.0180E+6	4.4901	0.2063	-5.9
215.18	1.0190E+6	4.4930	0.2040	-5.7
215.38	1.0200E+6	4.4873	0.2033	-6.1
215.54	1.0210E+6	4.4930	0.2036	-6.1
215.72	1.0220E+6	4.4887	0.2026	-6.1
215.91	1.0230E+6	4.4915	0.2019	-5.7
216.09	1.0240E+6	4.4915	0.2011	-6.5
216.29	1.0250E+6	4.4788	0.2013	-9.4
216.47	1.0260E+6	4.4930	0.2004	-7.8
216.67	1.0270E+6	4.4873	0.2018	-6.8
216.86	1.0280E+6	4.4802	0.2011	-7.4
217.07	1.0290E+6	4.4887	0.1997	-5.9
217.27	1.0300E+6	4.4845	0.2011	-8.0
217.47	1.0310E+6	4.4901	0.1998	-6.1
217.67	1.0320E+6	4.4887	0.2000	-3.5
217.84	1.0330E+6	4.4845	0.1983	-2.6
218.04	1.0340E+6	4.4831	0.1996	-10.8
218.24	1.0350E+6	4.4901	0.1977	-5.8
218.45	1.0360E+6	4.4859	0.1973	-4.8
218.64	1.0370E+6	4.4887	0.1966	-5.8
218.82	1.0380E+6	4.4887	0.1976	-2.6
219.02	1.0390E+6	4.4930	0.1968	-7.7
219.20	1.0400E+6	4.4887	0.1952	-6.4
219.40	1.0410E+6	4.4788	0.1934	-6.4
219.60	1.0420E+6	4.4873	0.1979	-5.8
219.83	1.0430E+6	4.4859	0.1942	-6.8
220.02	1.0440E+6	4.4859	0.1942	-5.8
220.20	1.0450E+6	4.4859	0.1953	-10.3
220.38	1.0460E+6	4.4788	0.1928	-7.2
220.60	1.0470E+6	4.4887	0.1950	-6.8
220.80	1.0480E+6	4.4859	0.1931	-9.4
221.00	1.0490E+6	4.4816	0.1933	-5.9
221.20	1.0500E+6	4.4901	0.1929	-6.8
221.40	1.0510E+6	4.5071	0.1928	-2.5
221.58	1.0520E+6	4.4958	0.1923	-7.8
221.75	1.0530E+6	4.4958	0.1926	-4.7
221.93	1.0540E+6	4.5014	0.1916	-6.6
222.11	1.0550E+6	4.4915	0.1911	-6.3
222.30	1.0560E+6	4.4944	0.1920	-6.6
222.48	1.0570E+6	4.5043	0.1905	-5.1
222.68	1.0580E+6	4.5085	0.1907	-6.3
222.84	1.0590E+6	4.4958	0.1899	-4.9
223.04	1.0600E+6	4.5029	0.1907	-4.6
223.24	1.0610E+6	4.5000	0.1906	-7.1
223.41	1.0620E+6	4.4972	0.1903	-7.3
223.58	1.0630E+6	4.5000	0.1878	-5.3
223.76	1.0640E+6	4.5043	0.1889	-3.6
223.96	1.0650E+6	4.4972	0.1896	-6.1
224.12	1.0660E+6	4.5029	0.1896	-6.3
224.31	1.0670E+6	4.5014	0.1888	-4.8
224.47	1.0680E+6	4.4972	0.1873	-6.2
224.67	1.0690E+6	4.5014	0.1870	-4.6
224.84	1.0700E+6	4.5000	0.1862	-5.2
225.02	1.0710E+6	4.4986	0.1861	-5.0
225.19	1.0720E+6	4.4958	0.1854	-1.7
225.39	1.0730E+6	4.4972	0.1855	-6.6
225.56	1.0740E+6	4.4972	0.1848	-6.6
225.74	1.0750E+6	4.5014	0.1845	-3.7
225.92	1.0760E+6	4.4972	0.1834	-5.8
226.10	1.0770E+6	4.5029	0.1840	-8.6
226.27	1.0780E+6	4.4986	0.1848	-6.0
226.47	1.0790E+6	4.4887	0.1835	-5.4
226.66	1.0800E+6	4.4972	0.1823	-2.7
226.85	1.0810E+6	4.4986	0.1824	-4.3
227.02	1.0820E+6	4.4958	0.1812	-6.2
227.22	1.0830E+6	4.4887	0.1832	-5.1
227.40	1.0840E+6	4.4958	0.1828	-4.1
227.60	1.0850E+6	4.4930	0.1823	-3.9
227.78	1.0860E+6	4.4972	0.1808	-7.2
227.97	1.0870E+6	4.4944	0.1812	-5.1
228.15	1.0880E+6	4.5000	0.1803	-8.6
228.33	1.0890E+6	4.4958	0.1810	-6.3
228.53	1.0900E+6	4.4930	0.1792	-0.8
228.71	1.0910E+6	4.4944	0.1816	-6.3
228.91	1.0920E+6	4.4986	0.1798	-5.7
229.10	1.0930E+6	4.4915	0.1789	-4.3
229.30	1.0940E+6	4.4930	0.1776	-8.5
229.46	1.0950E+6	4.4930	0.1790	-6.9
229.66	1.0960E+6	4.4944	0.1771	-4.7
229.85	1.0970E+6	4.4873	0.1767	-3.2
230.03	1.0980E+6	4.4944	0.1798	-12.5
230.21	1.0990E+6	4.4873	0.1794	-4.4
230.39	1.1000E+6	4.4915	0.1755	-2.8
230.58	1.1010E+6	4.4831	0.1769	-4.8
230.79	1.1020E+6	4.4972	0.1769	-5.6
230.96	1.1030E+6	4.4944	0.1765	-5.6
231.14	1.1040E+6	4.4901	0.1747	-7.7
231.32	1.1050E+6	4.4845	0.1740	-6.0
231.53	1.1060E+6	4.4873	0.1744	-5.8
231.69	1.1070E+6	4.4930	0.1746	-5.8
231.86	1.1080E+6	4.4915	0.1736	-5.6
232.04	1.1090E+6	4.4915	0.1743	-5.2
232.21	1.1100E+6	4.4901	0.1742	-7.6
232.39	1.1110E+6	4.4915	0.1726	-7.6
232.57	1.1120E+6	4.4958	0.1744	-6.4
232.77	1.1130E+6	4.4915	0.1731	-4.6
232.96	1.1140E+6	4.4958	0.1713	-6.0
233.16	1.1150E+6	4.4930	0.1708	-2.0
233.32	1.1160E+6	4.4958	0.1716	-4.8
233.50	1.1170E+6	4.4859	0.1699	-8.3
233.69	1.1180E+6	4.4972	0.1696	-4.6
233.87	1.1190E+6	4.4816	0.1692	-5.6
234.05	1.1200E+6	4.4901	0.1689	-6.5
234.27	1.1210E+6	4.4901	0.1706	-4.8
234.45	1.1220E+6	4.4887	0.1690	-4.2
234.65	1.1230E+6	4.4859	0.1680	-7.3
234.84	1.1240E+6	4.4930	0.1683	-4.8
235.02	1.1250E+6	4.4859	0.1683	-6.9
235.18	1.1260E+6	4.4873	0.1658	-7.3
235.38	1.1270E+6	4.4887	0.1671	-3.8
235.57	1.1280E+6	4.4887	0.1662	-6.1
235.73	1.1290E+6	4.4816	0.1670	-5.9
235.92	1.1300E+6	4.4901	0.1697	-9.7
236.13	1.1310E+6	4.4845	0.1667	-5.3
236.31	1.1320E+6	4.4760	0.1669	-6.1
236.50	1.1330E+6	4.4859	0.1651	-8.0
236.71	1.1340E+6	4.4901	0.1644	-8.6
236.90	1.1350E+6	4.4873	0.1653	-7.2
237.10	1.1360E+6	4.4958	0.1641	-2.5
237.28	1.1370E+6	4.4873	0.1642	-6.5
237.46	1.1380E+6	4.4859	0.1646	-2.9
237.63	1.1390E+6	4.4873	0.1628	-7.6
237.83	1.1400E+6	4.4887	0.1640	-5.3
238.01	1.1410E+6	4.4915	0.1648	-6.0
238.21	1.1420E+6	4.4901	0.1657	-6.4
238.38	1.1430E+6	4.4788	0.1637	-3.9
238.59	1.1440E+6	4.4887	0.1616	-4.3
238.79	1.1450E+6	4.4845	0.1632	-8.1
238.98	1.1460E+6	4.4887	0.1599	-6.6
239.18	1.1470E+6	4.4873	0.1622	-8.1
239.36	1.1480E+6	4.4816	0.1634	-8.9
239.57	1.1490E+6	4.4901	0.1613	-5.2
239.78	1.1500E+6	4.4816	0.1606	-6.2
239.97	1.1510E+6	4.4915	0.1605	-3.9
240.14	1.1520E+6	4.4915	0.1618	-6.9
240.32	1.1530E+6	4.4845	0.1618	-7.7
240.49	1.1540E+6	4.4845	0.1605	-3.1
240.67	1.1550E+6	4.4859	0.1627	-7.7
240.85	1.1560E+6	4.4816	0.1599	-3.3
241.05	1.1570E+6	4.4845	0.1601	-4.8
241.25	1.1580E+6	4.4873	0.1580	-5.6
241.44	1.1590E+6	4.4958	0.1592	-5.4
241.64	1.1600E+6	4.4788	0.1588	-6.9
241.84	1.1610E+6	4.4930	0.1586	-9.6
242.02	1.1620E+6	4.4746	0.1599	-5.9
242.22	1.1630E+6	4.4859	0.1572	-5.5
242.44	1.1640E+6	4.4816	0.1585	-6.7
242.63	1.1650E+6	4.4802	0.1591	-5.5
242.80	1.1660E+6	4.4859	0.1588	-6.7
243.00	1.1670E+6	4.4859	0.1602	-8.8
243.18	1.1680E+6	4.4986	0.1564	-7.4
243.38	1.1690E+6	4.4831	0.1551	-4.8
243.58	1.1700E+6	4.4831	0.1561	-8.4
243.77	1.1710E+6	4.4859	0.1556	-7.4
243.95	1.1720E+6	4.4788	0.1560	-4.0
244.13	1.1730E+6	4.4831	0.1562	-8.0
244.31	1.1740E+6	4.4845	0.1568	-8.5
244.51	1.1750E+6	4.4774	0.1572	-7.8
244.71	1.1760E+6	4.4816	0.1547	-3.8
244.90	1.1770E+6	4.4887	0.1545	-2.5
245.10	1.1780E+6	4.4788	0.1552	-7.4
245.30	1.1790E+6	4.4845	0.1563	-6.6
245.51	1.1800E+6	4.4845	0.1538	-1.9
245.69	1.1810E+6	4.4774	0.1539	-4.3
245.86	1.1820E+6	4.4816	0.1543	-5.5
246.04	1.1830E+6	4.4873	0.1528	-5.5
246.24	1.1840E+6	4.4689	0.1548	-6.4
246.46	1.1850E+6	4.4816	0.1547	-6.2
246.63	1.1860E+6	4.4802	0.1518	-4.5
246.82	1.1870E+6	4.4788	0.1518	-6.0
246.99	1.1880E+6	4.4873	0.1534	-4.3
247.19	1.1890E+6	4.4816	0.1525	-7.7
247.39	1.1900E+6	4.4845	0.1520	-8.6
247.59	1.1910E+6	4.4774	0.1509	-7.7
247.79	1.1920E+6	4.4802	0.1514	-6.2
247.96	1.1930E+6	4.4788	0.1527	-1.5
248.14	1.1940E+6	4.4845	0.1524	-4.3
248.34	1.1950E+6	4.4788	0.1523	-3.7
248.51	1.1960E+6	4.4887	0.1497	-2.2
248.72	1.1970E+6	4.4816	0.1520	-3.4
248.92	1.1980E+6	4.4873	0.1504	-4.5
249.14	1.1990E+6	4.4732	0.1509	-7.1
249.34	1.2000E+6	4.4802	0.1501	-6.1
249.50	1.2010E+6	4.4816	0.1514	-9.7
249.69	1.2020E+6	4.4760	0.1508	-2.4
249.82	1.2030E+6	4.4802	0.1482	-5.2
250.00	1.2040E+6	4.4774	0.1497	-5.8
250.17	1.2050E+6	4.4802	0.1497	-9.3
250.30	1.2060E+6	4.4831	0.1483	-5.0
250.48	1.2070E+6	4.4760	0.1512	-4.8
250.65	1.2080E+6	4.4831	0.1483	-4.8
250.83	1.2090E+6	4.4732	0.1487	-8.7
250.97	1.2100E+6	4.4746	0.1482	-7.2
251.13	1.2110E+6	4.4802	0.1483	+0.0
251.28	1.2120E+6	4.4816	0.1467	-5.7
251.45	1.2130E+6	4.4774	0.1504	-0.9
251.63	1.2140E+6	4.4746	0.1455	-0.9
251.80	1.2150E+6	4.4746	0.1468	+0.7
251.98	1.2160E+6	4.4717	0.1476	-3.5
252.11	1.2170E+6	4.4845	0.1483	-3.7
252.30	1.2180E+6	4.4717	0.1488	-4.6
252.48	1.2190E+6	4.4746	0.1457	-2.4
252.66	1.2200E+6	4.4816	0.1458	-4.4
252.83	1.2210E+6	4.4788	0.1461	-8.1
253.00	1.2220E+6	4.4802	0.1459	-5.7
253.15	1.2230E+6	4.4845	0.1467	-7.9
253.36	1.2240E+6	4.4703	0.1434	-2.4
253.56	1.2250E+6	4.4802	0.1466	-6.9
253.76	1.2260E+6	4.4831	0.1454	-5.1
253.94	1.2270E+6	4.4746	0.1451	-4.0
254.11	1.2280E+6	4.4760	0.1446	-4.9
254.31	1.2290E+6	4.4732	0.1440	-4.4
254.48	1.2300E+6	4.4788	0.1449	-8.6
254.66	1.2310E+6	4.4717	0.1447	-3.6
254.82	1.2320E+6	4.4703	0.1443	-2.2
254.99	1.2330E+6	4.4831	0.1442	-6.0
255.18	1.2340E+6	4.4703	0.1428	-6.9
255.36	1.2350E+6	4.4774	0.1442	-8.2
255.56	1.2360E+6	4.4717	0.1452	-5.8
255.74	1.2370E+6	4.4760	0.1429	-5.1
255.92	1.2380E+6	4.4717	0.1456	-3.6
256.12	1.2390E+6	4.4703	0.1456	-2.9
256.29	1.2400E+6	4.4774	0.1415	-2.9
256.49	1.2410E+6	4.4661	0.1435	-5.6
256.67	1.2420E+6	4.4661	0.1417	-6.9
256.86	1.2430E+6	4.4816	0.1425	-5.8
257.05	1.2440E+6	4.4760	0.1412	-8.3
257.24	1.2450E+6	4.4732	0.1423	-4.7
257.42	1.2460E+6	4.4689	0.1418	-4.9
257.62	1.2470E+6	4.4689	0.1409	-2.0
257.79	1.2480E+6	4.4717	0.1425	-4.9
257.98	1.2490E+6	4.4717	0.1411	-4.7
258.15	1.2500E+6	4.4760	0.1417	-6.1
258.30	1.2510E+6	4.4689	0.1407	-4.5
258.50	1.2520E+6	4.4661	0.1396	-6.1
258.67	1.2530E+6	4.4717	0.1398	-7.7
258.83	1.2540E+6	4.4647	0.1405	-6.6
259.00	1.2550E+6	4.4802	0.1397	-3.8
259.15	1.2560E+6	4.4788	0.1395	-7.3
259.33	1.2570E+6	4.4788	0.1410	-7.2
259.52	1.2580E+6	4.4717	0.1381	-6.6
259.70	1.2590E+6	4.4647	0.1397	-7.9
259.90	1.2600E+6	4.4590	0.1390	-7.5
260.08	1.2610E+6	4.4675	0.1389	-8.9
260.26	1.2620E+6	4.4717	0.1389	-4.3
260.43	1.2630E+6	4.4746	0.1384	-5.0
260.60	1.2640E+6	4.4703	0.1375	-2.9
260.80	1.2650E+6	4.4647	0.1377	-8.2
260.96	1.2660E+6	4.4675	0.1387	-4.6
261.14	1.2670E+6	4.4689	0.1374	-7.1
261.35	1.2680E+6	4.4675	0.1364	-5.0
261.53	1.2690E+6	4.4689	0.1375	-9.4
261.73	1.2700E+6	4.4675	0.1375	-4.3
261.89	1.2710E+6	4.4760	0.1373	-1.4
262.06	1.2720E+6	4.4703	0.1349	-6.2
262.26	1.2730E+6	4.4618	0.1361	-3.9
262.44	1.2740E+6	4.4689	0.1353	-3.7
262.61	1.2750E+6	4.4661	0.1397	+358.2
262.81	1.2760E+6	4.4604	0.1354	-4.1
262.99	1.2770E+6	4.4703	0.1353	-9.4
263.16	1.2780E+6	4.4689	0.1369	-6.2
263.34	1.2790E+6	4.4689	0.1348	-6.0
263.52	1.2800E+6	4.4647	0.1343	-3.0
263.69	1.2810E+6	4.4618	0.1339	-5.5
263.86	1.2820E+6	4.4576	0.1356	-5.5
264.04	1.2830E+6	4.4703	0.1349	-6.2
264.22	1.2840E+6	4.4675	0.1343	-7.2
264.39	1.2850E+6	4.4689	0.1350	-6.7
264.55	1.2860E+6	4.4717	0.1333	-6.7
264.75	1.2870E+6	4.4647	0.1336	-7.6
264.92	1.2880E+6	4.4604	0.1355	-3.9
265.12	1.2890E+6	4.4647	0.1322	-6.0
265.30	1.2900E+6	4.4590	0.1341	-6.8
265.49	1.2910E+6	4.4604	0.1339	-2.8
265.67	1.2920E+6	4.4661	0.1314	-5.3
265.85	1.2930E+6	4.4604	0.1343	-8.2
266.04	1.2940E+6	4.4647	0.1344	-5.1
266.20	1.2950E+6	4.4647	0.1315	+0.9
266.38	1.2960E+6	4.4633	0.1323	-2.3
266.57	1.2970E+6	4.4647	0.1330	-6.1
266.75	1.2980E+6	4.4618	0.1324	-2.8
266.92	1.2990E+6	4.4661	0.1314	-3.0
267.10	1.3000E+6	4.4590	0.1319	-5.6
267.28	1.3010E+6	4.4633	0.1319	-8.2
267.45	1.3020E+6	4.4717	0.1321	-3.0
267.61	1.3030E+6	4.4661	0.1317	-7.0
267.76	1.3040E+6	4.4661	0.1328	-2.3
267.95	1.3050E+6	4.4647	0.1304	-2.8
268.15	1.3060E+6	4.4604	0.1315	-7.7
268.33	1.3070E+6	4.4618	0.1298	-6.6
268.51	1.3080E+6	4.4661	0.1305	-2.6
268.69	1.3090E+6	4.4633	0.1297	-6.6
268.86	1.3100E+6	4.4618	0.1308	-5.0
269.03	1.3110E+6	4.4661	0.1289	-8.3
269.23	1.3120E+6	4.4604	0.1313	-5.4
269.41	1.3130E+6	4.4604	0.1290	-6.1
269.59	1.3140E+6	4.4604	0.1295	-5.0
269.79	1.3150E+6	4.4618	0.1286	-8.1
269.98	1.3160E+6	4.4618	0.1292	-5.0
270.14	1.3170E+6	4.4519	0.1293	-10.0
270.34	1.3180E+6	4.4647	0.1286	-4.5
270.52	1.3190E+6	4.4604	0.1285	-5.7
270.67	1.3200E+6	4.4618	0.1292	-3.8
270.84	1.3210E+6	4.4675	0.1282	-2.6
271.01	1.3220E+6	4.4576	0.1281	-5.3
271.17	1.3230E+6	4.4590	0.1274	-5.2
271.37	1.3240E+6	4.4534	0.1278	-6.0
271.54	1.3250E+6	4.4633	0.1252	-6.9
271.76	1.3260E+6	4.4633	0.1287	-5.0
271.92	1.3270E+6	4.4604	0.1270	-10.5
272.10	1.3280E+6	4.4590	0.1271	-6.7
272.27	1.3290E+6	4.4519	0.1265	-5.7
272.47	1.3300E+6	4.4519	0.1262	-5.3
272.64	1.3310E+6	4.4647	0.1271	-4.6
272.85	1.3320E+6	4.4519	0.1268	-4.8
273.04	1.3330E+6	4.4590	0.1265	-6.2
273.24	1.3340E+6	4.4604	0.1252	-6.2
273.44	1.3350E+6	4.4562	0.1259	-6.0
273.62	1.3360E+6	4.4604	0.1249	-3.6
273.80	1.3370E+6	4.4590	0.1258	-1.2
274.00	1.3380E+6	4.4562	0.1269	-4.8
274.18	1.3390E+6	4.4548	0.1249	-7.0
274.38	1.3400E+6	4.4633	0.1232	-1.9
274.60	1.3410E+6	4.4618	0.1239	-1.0
274.78	1.3420E+6	4.4548	0.1258	-5.5
274.98	1.3430E+6	4.4576	0.1246	-6.0
275.20	1.3440E+6	4.4562	0.1250	-8.5
275.37	1.3450E+6	4.4576	0.1231	-2.7
275.55	1.3460E+6	4.4604	0.1247	-5.1
275.75	1.3470E+6	4.4576	0.1230	-8.5
275.93	1.3480E+6	4.4534	0.1254	-1.7
276.13	1.3490E+6	4.4519	0.1235	-1.5
276.33	1.3500E+6	4.4618	0.1247	-10.0
276.53	1.3510E+6	4.4548	0.1246	-9.5
276.71	1.3520E+6	4.4661	0.1272	-2.9
276.93	1.3530E+6	4.4548	0.1223	-5.6
277.13	1.3540E+6	4.4675	0.1239	-5.6
277.33	1.3550E+6	4.4534	0.1222	-3.7
277.55	1.3560E+6	4.4590	0.1224	-2.4
277.74	1.3570E+6	4.4505	Inf	+350.5
277.93	1.3580E+6	4.4534	0.1222	-0.7
278.12	1.3590E+6	4.4548	0.1239	-2.5
278.29	1.3600E+6	4.4590	0.1250	-7.1
278.48	1.3610E+6	4.4505	0.1250	-6.1
278.66	1.3620E+6	4.4604	0.1218	-7.1
278.87	1.3630E+6	4.4548	0.1242	-9.8
279.07	1.3640E+6	4.4618	0.1221	-2.0
279.27	1.3650E+6	4.4519	0.1211	-5.7
279.47	1.3660E+6	4.4548	0.1204	-7.1
279.66	1.3670E+6	4.4534	0.1191	-6.7
279.82	1.3680E+6	4.4477	0.1198	-7.4
280.02	1.3690E+6	4.4576	0.1240	-6.6
280.22	1.3700E+6	4.4604	0.1199	-6.2
280.40	1.3710E+6	4.4519	0.1206	-7.4
280.60	1.3720E+6	4.4548	0.1223	-3.7
280.79	1.3730E+6	4.4548	0.1209	-3.2
280.97	1.3740E+6	4.4534	0.1188	-7.2
281.17	1.3750E+6	4.4548	0.1182	-3.9
281.34	1.3760E+6	4.4562	0.1190	-3.5
281.50	1.3770E+6	4.4491	0.1208	-2.0
281.72	1.3780E+6	4.4534	0.1214	-5.0
281.90	1.3790E+6	4.4491	0.1197	-4.5
282.08	1.3800E+6	4.4534	0.1189	-4.7
282.28	1.3810E+6	4.4491	0.1196	-8.2
282.47	1.3820E+6	4.4505	0.1188	-4.7
282.65	1.3830E+6	4.4491	0.1184	-5.2
282.82	1.3840E+6	4.4548	0.1186	-6.7
282.98	1.3850E+6	4.4491	0.1183	-6.5
283.15	1.3860E+6	4.4519	0.1177	-0.7
283.33	1.3870E+6	4.4534	0.1180	-6.7
283.51	1.3880E+6	4.4534	0.1174	-5.8
283.68	1.3890E+6	4.4463	0.1139	-1.3
283.86	1.3900E+6	4.4548	0.1184	-6.0
284.06	1.3910E+6	4.4548	0.1193	-8.0
284.23	1.3920E+6	4.4420	0.1194	-6.5
284.40	1.3930E+6	4.4505	0.1175	-5.5
284.60	1.3940E+6	4.4519	0.1199	-2.0
284.78	1.3950E+6	4.4491	0.1156	+0.0
284.96	1.3960E+6	4.4519	0.1172	-4.0
285.16	1.3970E+6	4.4505	0.1167	-4.3
285.34	1.3980E+6	4.4392	0.1173	-7.6
285.52	1.3990E+6	4.4519	0.1162	-3.3
285.71	1.4000E+6	4.4449	0.1153	-7.6
285.89	1.4010E+6	4.4491	0.1177	-3.5
286.06	1.4020E+6	4.4491	0.1149	-9.9
286.24	1.4030E+6	4.4519	0.1144	-5.8
286.41	1.4040E+6	4.4491	0.1161	-3.5
286.57	1.4050E+6	4.4449	0.1161	-5.3
286.74	1.4060E+6	4.4392	0.1133	-8.1
286.94	1.4070E+6	4.4420	0.1157	-5.1
287.12	1.4080E+6	4.4406	0.1142	-5.8
287.29	1.4090E+6	4.4491	0.1161	-5.6
287.47	1.4100E+6	4.4435	0.1156	-1.3
287.65	1.4110E+6	4.4392	0.1148	-3.3
287.84	1.4120E+6	4.4491	0.1153	-6.4
288.02	1.4130E+6	4.4477	0.1149	-5.1
288.22	1.4140E+6	4.4505	0.1150	-8.9
288.37	1.4150E+6	4.4463	0.1145	-7.4
288.54	1.4160E+6	4.4449	0.1132	-6.6
288.74	1.4170E+6	4.4364	0.1127	-3.1
288.90	1.4180E+6	4.4392	0.1138	-7.7
289.07	1.4190E+6	4.4420	0.1147	-4.6
289.25	1.4200E+6	4.4392	0.1136	-5.9
289.45	1.4210E+6	4.4420	0.1147	-8.4
289.63	1.4220E+6	4.4392	0.1150	-6.1
289.80	1.4230E+6	4.4435	0.1149	-5.9
289.97	1.4240E+6	4.4449	0.1128	-9.2
290.15	1.4250E+6	4.4420	0.1129	-4.1
290.31	1.4260E+6	4.4364	0.1132	-3.6
290.48	1.4270E+6	4.4420	0.1133	-1.3
290.65	1.4280E+6	4.4378	0.1139	+1.3
290.83	1.4290E+6	4.4392	0.1147	-3.9
290.98	1.4300E+6	4.4477	0.1110	-4.4
291.18	1.4310E+6	4.4364	0.1115	-8.2
291.35	1.4320E+6	4.4321	0.1118	-6.2
291.51	1.4330E+6	4.4406	0.1116	-9.5
291.68	1.4340E+6	4.4435	0.1118	-2.1
291.85	1.4350E+6	4.4420	0.1108	-7.8
292.01	1.4360E+6	4.4449	0.1138	-4.7
292.18	1.4370E+6	4.4378	0.1138	+1.3
292.36	1.4380E+6	4.4406	0.1100	-4.1
292.54	1.4390E+6	4.4420	0.1117	-4.9
292.73	1.4400E+6	4.4378	0.1129	-5.2
292.93	1.4410E+6	4.4350	0.1142	-4.7
293.11	1.4420E+6	4.4336	0.1115	-4.9
293.29	1.4430E+6	4.4336	0.1106	-3.6
293.48	1.4440E+6	4.4364	0.1098	-1.0
293.66	1.4450E+6	4.4435	0.1098	-8.1
293.82	1.4460E+6	4.4378	0.1104	-2.6
293.98	1.4470E+6	4.4364	0.1128	-8.1
294.16	1.4480E+6	4.4491	0.1103	-2.9
294.34	1.4490E+6	4.4378	0.1111	-3.1
294.52	1.4500E+6	4.4449	0.1128	-7.3
294.71	1.4510E+6	4.4364	0.1091	-8.1
294.91	1.4520E+6	4.4420	0.1105	-3.1
295.09	1.4530E+6	4.4293	0.1039	-11.0
295.27	1.4540E+6	4.4378	0.1105	-4.2
295.45	1.4550E+6	4.4406	0.1102	-7.1
295.62	1.4560E+6	4.4491	0.1092	-2.1
295.81	1.4570E+6	4.4406	0.1085	-2.1
295.95	1.4580E+6	4.4378	0.1116	-8.4
296.14	1.4590E+6	4.4378	0.1104	-5.8
296.30	1.4600E+6	4.4378	0.1123	-6.1
296.49	1.4610E+6	4.4336	0.1087	-7.1
296.69	1.4620E+6	4.4321	0.1095	-8.4
296.85	1.4630E+6	4.4392	0.1112	-3.2
297.02	1.4640E+6	4.4435	0.1090	-6.6
297.20	1.4650E+6	4.4350	0.1107	-6.6
297.40	1.4660E+6	4.4406	0.1107	-4.5
297.57	1.4670E+6	4.4180	0.1093	-6.6
297.77	1.4680E+6	4.4449	0.1102	-7.4
297.98	1.4690E+6	4.4336	0.1068	-0.8
298.17	1.4700E+6	4.4251	0.1101	-4.0
298.37	1.4710E+6	4.4406	0.1088	-9.3
298.56	1.4720E+6	4.4350	0.1076	-3.4
298.76	1.4730E+6	4.4364	0.1084	-4.8
298.95	1.4740E+6	4.4378	0.1067	-4.0
299.13	1.4750E+6	4.4293	0.1081	-6.7
299.31	1.4760E+6	4.4364	0.1069	-4.3
299.48	1.4770E+6	4.4321	0.1079	-10.9
299.65	1.4780E+6	4.4321	0.1080	-5.9
299.81	1.4790E+6	4.4350	0.1083	-4.8
300.01	1.4800E+6	4.4364	0.1059	-7.5
300.19	1.4810E+6	4.4307	0.1084	+0.3
300.38	1.4820E+6	4.4251	Inf	-9.1
300.56	1.4830E+6	4.4307	0.1083	-4.0
300.76	1.4840E+6	4.4279	0.1077	-5.3
300.94	1.4850E+6	4.4406	0.1054	-9.9
301.13	1.4860E+6	4.4194	0.1089	-10.2
301.34	1.4870E+6	4.4237	0.1067	-3.8
301.52	1.4880E+6	4.4336	0.1067	-7.0
301.69	1.4890E+6	4.4279	0.1073	-8.3
301.87	1.4900E+6	4.4251	0.1054	-1.6
302.09	1.4910E+6	4.4336	0.1068	-7.2
302.29	1.4920E+6	4.4307	0.1064	-8.0
302.47	1.4930E+6	4.4279	0.1052	-6.7
302.66	1.4940E+6	4.4321	0.1053	-1.3
302.84	1.4950E+6	4.4279	0.1066	-4.0
303.02	1.4960E+6	4.4364	0.1061	-7.5
303.19	1.4970E+6	4.4406	0.1059	-6.7
303.34	1.4980E+6	4.4336	0.1043	-10.8
303.54	1.4990E+6	4.4279	0.1063	-4.6
303.72	1.5000E+6	4.4237	0.1050	-5.4
303.92	1.5010E+6	4.4279	0.1042	-5.7
304.12	1.5020E+6	4.4307	0.1043	-7.6
304.29	1.5030E+6	4.4279	0.1042	-5.4
304.45	1.5040E+6	4.4251	0.1041	-3.5
304.63	1.5050E+6	4.4321	0.1053	-7.3
304.83	1.5060E+6	4.4194	0.1056	-7.0
305.03	1.5070E+6	4.4237	0.1043	-8.7
305.22	1.5080E+6	4.4378	0.1047	-7.9
305.40	1.5090E+6	4.4222	0.1062	-6.0
305.62	1.5100E+6	4.4237	0.0994	-2.2
305.80	1.5110E+6	4.4364	0.1027	-0.5
306.00	1.5120E+6	4.4166	0.1044	-7.3
306.20	1.5130E+6	4.4265	0.1044	-5.7
306.38	1.5140E+6	4.4350	0.1061	-7.6
306.58	1.5150E+6	4.4251	0.1022	-7.6
306.78	1.5160E+6	4.4336	0.1058	-6.8
306.98	1.5170E+6	4.4194	0.1048	-3.0
307.20	1.5180E+6	4.4293	Inf	+Inf
307.36	1.5190E+6	4.4265	0.1024	-3.6
307.56	1.5200E+6	4.4237	0.1049	-1.4
307.76	1.5210E+6	4.4265	0.1028	-3.0
307.94	1.5220E+6	4.4251	0.1020	-7.4
308.11	1.5230E+6	4.4321	0.1030	-9.1
308.31	1.5240E+6	4.4293	0.1027	-6.0
308.48	1.5250E+6	4.4222	0.1031	-5.7
308.66	1.5260E+6	4.4279	0.1020	-1.9
308.86	1.5270E+6	4.4222	0.1013	-8.0
309.03	1.5280E+6	4.4251	0.1022	-5.2
309.19	1.5290E+6	4.4321	0.1033	-6.9
309.39	1.5300E+6	4.4237	0.1020	-5.2
309.59	1.5310E+6	4.4336	0.1014	-7.2
309.76	1.5320E+6	4.4208	0.1009	-4.1
309.98	1.5330E+6	4.4194	0.1009	-6.3
310.14	1.5340E+6	4.4336	0.1021	-10.0
310.34	1.5350E+6	4.4279	0.1026	-8.0
310.52	1.5360E+6	4.4194	0.1027	-4.7
310.70	1.5370E+6	4.4138	0.1012	-8.3
310.89	1.5380E+6	4.4166	0.1015	-5.3
311.06	1.5390E+6	4.4194	0.1028	-4.4
311.22	1.5400E+6	4.4251	0.1003	-7.5
311.42	1.5410E+6	4.4222	0.1011	-5.8
311.59	1.5420E+6	4.4321	0.1009	-1.4
311.75	1.5430E+6	4.4251	0.1010	-4.7
311.92	1.5440E+6	4.4222	0.1011	-7.0
312.09	1.5450E+6	4.4123	0.1002	-4.7
312.25	1.5460E+6	4.4307	0.1002	-9.1
312.42	1.5470E+6	4.4138	0.1003	-10.6
312.58	1.5480E+6	4.4279	0.1007	-8.4
312.77	1.5490E+6	4.4180	0.1015	-2.0
312.97	1.5500E+6	4.4180	0.0993	-7.0
313.15	1.5510E+6	4.4208	0.1014	-6.7
313.33	1.5520E+6	4.4081	0.1010	-1.4
313.53	1.5530E+6	4.4279	0.0960	-12.0
313.73	1.5540E+6	4.4208	0.1001	-7.6
313.93	1.5550E+6	4.4194	0.1008	-6.2
314.10	1.5560E+6	4.4138	0.1016	-7.6
314.30	1.5570E+6	4.4251	0.0998	-5.3
314.48	1.5580E+6	4.4251	0.1002	-6.4
314.65	1.5590E+6	4.4208	0.0981	-8.4
314.83	1.5600E+6	4.4293	0.0992	-4.8
315.05	1.5610E+6	4.4081	0.0970	-6.2
315.25	1.5620E+6	4.4237	0.0993	-7.3
315.43	1.5630E+6	4.4222	0.0984	-5.6
315.60	1.5640E+6	4.4138	0.1000	-5.1
315.80	1.5650E+6	4.4152	0.0976	-2.8
315.98	1.5660E+6	4.4222	0.0991	-9.0
316.16	1.5670E+6	4.4123	0.0979	-8.8
316.33	1.5680E+6	4.4123	0.1003	-4.8
316.53	1.5690E+6	4.4123	0.0980	-8.8
316.71	1.5700E+6	4.4208	0.0973	+0.0
316.88	1.5710E+6	4.4166	0.0988	-7.1
317.06	1.5720E+6	4.4152	0.0979	-3.7
317.26	1.5730E+6	4.4152	0.0983	-6.2
317.44	1.5740E+6	4.4152	0.0980	-5.4
317.62	1.5750E+6	4.4222	0.0963	-5.7
317.79	1.5760E+6	4.4152	0.0998	-2.8
317.99	1.5770E+6	4.4095	0.0977	-6.5
318.17	1.5780E+6	4.4123	0.0989	-4.8
318.34	1.5790E+6	4.4123	0.0965	-4.3
318.52	1.5800E+6	4.4208	0.0976	-1.7
318.70	1.5810E+6	4.4152	0.0971	-3.4
318.89	1.5820E+6	4.4109	0.0975	-7.1
319.06	1.5830E+6	4.4109	0.0964	+0.6
319.22	1.5840E+6	4.4109	0.0967	-8.0
319.39	1.5850E+6	4.4166	0.0959	-7.7
319.55	1.5860E+6	4.4152	0.0973	-4.6
319.74	1.5870E+6	4.4194	0.0955	+0.3
319.92	1.5880E+6	4.4123	0.1003	-5.2
320.10	1.5890E+6	4.4180	0.0973	-9.2
320.30	1.5900E+6	4.4109	0.0968	-7.4
320.48	1.5910E+6	4.4166	0.0979	+0.3
320.67	1.5920E+6	4.4180	0.0961	-7.5
320.85	1.5930E+6	4.4095	0.0977	-4.6
321.05	1.5940E+6	4.4138	0.0953	-8.0
321.22	1.5950E+6	4.4109	0.0961	-8.3
321.40	1.5960E+6	4.4067	0.0954	-3.1
321.58	1.5970E+6	4.4194	0.0970	-7.2
321.78	1.5980E+6	4.4024	0.0959	-4.9
321.96	1.5990E+6	4.4166	0.0958	-3.5
322.13	1.6000E+6	4.3996	0.0958	-7.5
322.30	1.6010E+6	4.4095	0.0953	-2.3
322.46	1.6020E+6	4.4067	0.0967	-8.1
322.66	1.6030E+6	4.4109	0.0976	-7.5
322.83	1.6040E+6	4.4138	0.0952	-4.0
323.01	1.6050E+6	4.4180	0.0953	-3.8
323.18	1.6060E+6	4.4152	0.0958	-0.9
323.38	1.6070E+6	4.4095	0.0979	-0.3
323.56	1.6080E+6	4.4152	0.0946	-4.6
323.75	1.6090E+6	4.4053	0.0953	-3.5
323.89	1.6100E+6	4.4138	0.0946	-2.3
324.08	1.6110E+6	4.4138	0.0949	-4.4
324.24	1.6120E+6	4.4109	0.0941	-7.3
324.41	1.6130E+6	4.4067	0.0961	-9.0
324.58	1.6140E+6	4.4053	0.0955	-10.5
324.73	1.6150E+6	4.4123	0.0941	-7.0
324.91	1.6160E+6	4.4010	0.0953	-3.8
325.06	1.6170E+6	4.4053	0.0973	-6.4
325.24	1.6180E+6	4.4081	0.0956	-5.2
325.41	1.6190E+6	4.4109	0.0939	-6.7
325.61	1.6200E+6	4.4081	0.0942	-10.8
325.79	1.6210E+6	4.4152	0.0932	-4.1
325.97	1.6220E+6	4.4081	0.0970	-6.4
326.15	1.6230E+6	4.4095	0.0894	+0.0
326.36	1.6240E+6	4.4123	0.0946	-8.5
326.54	1.6250E+6	4.4039	0.0930	-2.3
326.70	1.6260E+6	4.4053	0.0936	-5.9
326.85	1.6270E+6	4.4010	0.0938	-2.6
327.02	1.6280E+6	4.3954	0.0953	-4.1
327.24	1.6290E+6	4.3940	0.0950	-6.5
327.40	1.6300E+6	4.4109	0.0925	-6.7
327.60	1.6310E+6	4.4067	0.0944	-5.3
327.79	1.6320E+6	4.4024	0.0939	-5.3
327.99	1.6330E+6	4.4053	0.0938	-7.7
328.15	1.6340E+6	4.4024	0.0940	-2.9
328.32	1.6350E+6	4.4081	0.0939	-8.2
328.48	1.6360E+6	4.4010	0.0940	-8.0
328.65	1.6370E+6	4.4152	0.0925	-8.8
328.85	1.6380E+6	4.3968	0.0918	-9.4
329.03	1.6390E+6	4.4265	0.0944	-2.4
329.23	1.6400E+6	4.4251	0.0929	-5.3
329.42	1.6410E+6	4.4109	0.0886	-5.9
329.62	1.6420E+6	4.4166	0.0930	-1.5
329.80	1.6430E+6	4.4123	0.0926	-8.0
329.98	1.6440E+6	4.4166	0.0923	-3.6
330.13	1.6450E+6	4.4123	0.0939	-6.5
330.31	1.6460E+6	4.4166	0.0937	-0.9
330.50	1.6470E+6	4.4081	0.0954	-3.0
330.68	1.6480E+6	4.4095	0.0914	-9.5
330.86	1.6490E+6	4.4081	0.0925	-5.6
331.03	1.6500E+6	4.4109	0.0921	-5.9
331.19	1.6510E+6	4.4180	0.0935	-5.0
331.38	1.6520E+6	4.4152	0.0913	-5.6
331.56	1.6530E+6	4.4166	0.0934	-7.7
331.74	1.6540E+6	4.4095	0.0934	-5.9
331.91	1.6550E+6	4.4081	0.0910	-4.8
332.11	1.6560E+6	4.4180	0.0910	-4.8
332.28	1.6570E+6	4.4166	0.0919	-6.6
332.44	1.6580E+6	4.4251	0.0914	-9.0
332.59	1.6590E+6	4.4039	0.0922	-6.6
332.77	1.6600E+6	4.4166	0.0925	-0.9
332.94	1.6610E+6	4.4138	0.0905	-2.7
333.11	1.6620E+6	4.4109	0.0909	-5.1
333.27	1.6630E+6	4.4067	0.0899	-2.1
333.42	1.6640E+6	4.4138	0.0888	-2.7
333.62	1.6650E+6	4.4208	0.0901	-6.0
333.79	1.6660E+6	4.4024	0.0919	-3.6
333.97	1.6670E+6	4.4194	0.0925	-12.9
334.14	1.6680E+6	4.4053	0.0927	-1.8
334.34	1.6690E+6	4.4123	0.0923	-5.7
334.52	1.6700E+6	4.4109	0.0928	-6.0
334.70	1.6710E+6	4.4095	0.0911	-3.6
334.87	1.6720E+6	4.4109	0.0914	-0.6
335.05	1.6730E+6	4.4123	0.0905	-3.9
335.24	1.6740E+6	4.4123	0.0908	-4.8
335.40	1.6750E+6	4.4166	0.0919	-6.3
335.58	1.6760E+6	4.4039	0.0903	-1.2
335.75	1.6770E+6	4.4166	0.0913	-2.7
335.92	1.6780E+6	4.4138	0.0915	-6.7
336.08	1.6790E+6	4.4067	0.0911	-5.5
336.27	1.6800E+6	4.4067	Inf	-358.0
336.43	1.6810E+6	4.4123	0.0919	-8.5
336.62	1.6820E+6	4.4081	0.0916	-4.8
336.78	1.6830E+6	4.4152	0.0913	-5.1
336.95	1.6840E+6	4.4024	0.0908	-5.1
337.12	1.6850E+6	4.4166	0.0919	-9.7
337.30	1.6860E+6	4.4039	0.0896	-7.9
337.48	1.6870E+6	4.4095	0.0858	-0.9
337.68	1.6880E+6	4.4123	0.0888	-5.5
337.85	1.6890E+6	4.4095	0.0894	-3.7
338.01	1.6900E+6	4.4053	0.0879	-9.1
338.20	1.6910E+6	4.4053	0.0884	-6.1
338.36	1.6920E+6	4.3982	0.0894	-4.6
338.56	1.6930E+6	4.4053	0.0906	-3.1
338.75	1.6940E+6	4.3996	0.0890	-8.6
338.93	1.6950E+6	4.3982	0.0886	-8.9
339.10	1.6960E+6	4.4095	0.0889	-8.9
339.26	1.6970E+6	4.4039	0.0885	+1.5
339.44	1.6980E+6	4.4081	0.0900	-9.8
339.61	1.6990E+6	4.4039	0.0881	-7.0
339.78	1.7000E+6	4.4109	0.0904	-7.6
339.94	1.7010E+6	4.3996	0.0885	+0.6
340.13	1.7020E+6	4.4095	0.0875	-6.7
340.32	1.7030E+6	4.4081	0.0887	-10.5
340.49	1.7040E+6	4.4039	0.0880	-3.4
340.68	1.7050E+6	4.4024	0.0899	+0.6
340.86	1.7060E+6	4.4024	0.0881	-7.4
341.06	1.7070E+6	4.3883	0.0878	-5.5
341.24	1.7080E+6	4.4095	0.0886	-4.9
341.44	1.7090E+6	4.3982	0.0872	-8.3
341.64	1.7100E+6	4.4010	0.0863	-8.6
341.84	1.7110E+6	4.3968	0.0860	-9.5
342.04	1.7120E+6	4.4039	0.0882	-8.0
342.24	1.7130E+6	4.3954	0.0874	-4.0
342.40	1.7140E+6	4.3996	0.0876	-7.4
342.59	1.7150E+6	4.3897	0.0865	-6.8
342.79	1.7160E+6	4.4067	0.0876	-6.8
343.00	1.7170E+6	4.3996	0.0865	-4.9
343.19	1.7180E+6	4.3982	0.0868	-6.2
343.37	1.7190E+6	4.4024	0.0859	-6.2
343.55	1.7200E+6	4.4039	0.0864	-5.0
343.72	1.7210E+6	4.3996	0.0871	-8.1
343.92	1.7220E+6	4.4039	0.0834	-3.1
344.10	1.7230E+6	4.4039	0.0872	-3.1
344.28	1.7240E+6	4.4039	0.0871	-7.4
344.45	1.7250E+6	4.4024	0.0869	-6.8
344.62	1.7260E+6	4.3996	0.0880	-4.3
344.82	1.7270E+6	4.3954	0.0860	-7.5
345.02	1.7280E+6	4.3968	0.0868	-6.2
345.18	1.7290E+6	4.4010	0.0879	-5.9
345.38	1.7300E+6	4.3911	0.0865	-7.5
345.58	1.7310E+6	4.4010	0.0863	-6.2
345.78	1.7320E+6	4.3897	0.0847	-5.3
345.98	1.7330E+6	4.4039	0.0875	-6.2
346.18	1.7340E+6	4.3996	0.0870	-2.8
346.33	1.7350E+6	4.3925	0.0865	-7.2
346.53	1.7360E+6	4.4010	0.0868	-8.8
346.73	1.7370E+6	4.3925	0.0868	-8.4
346.89	1.7380E+6	4.4024	0.0853	-8.4
347.10	1.7390E+6	4.3940	0.0847	-4.7
347.26	1.7400E+6	4.4067	0.0857	-6.5
347.46	1.7410E+6	4.3982	0.0864	-7.2
347.66	1.7420E+6	4.4109	0.0859	-6.0
347.83	1.7430E+6	4.3911	0.0856	-5.3
347.99	1.7440E+6	4.3996	0.0861	-2.2
348.16	1.7450E+6	4.4010	0.0838	-1.3
348.34	1.7460E+6	4.4039	0.0849	-3.5
348.53	1.7470E+6	4.4010	0.0857	-6.0
348.71	1.7480E+6	4.3954	0.0803	-0.3
348.91	1.7490E+6	4.3841	0.0835	-1.9
349.09	1.7500E+6	4.3968	0.0842	-6.6
349.27	1.7510E+6	4.3954	0.0852	-4.7
349.46	1.7520E+6	4.3897	0.0829	-5.4
349.64	1.7530E+6	4.3855	0.0850	-6.3
349.82	1.7540E+6	4.4010	0.0848	-7.6
349.99	1.7550E+6	4.3982	0.0841	-9.2
350.17	1.7560E+6	4.3982	0.0838	-4.7
350.35	1.7570E+6	4.3883	0.0841	-2.2
350.52	1.7580E+6	4.3954	0.0832	-5.7
350.69	1.7590E+6	4.4024	0.0837	-2.2
350.85	1.7600E+6	4.3869	0.0841	-3.8
351.02	1.7610E+6	4.3954	0.0839	-3.5
351.17	1.7620E+6	4.3855	0.0834	-7.3
351.33	1.7630E+6	4.4024	0.0848	-7.0
351.54	1.7640E+6	4.3925	0.0828	-2.5
351.74	1.7650E+6	4.3883	0.0832	-5.4
351.90	1.7660E+6	4.3911	0.0839	-1.3
352.07	1.7670E+6	4.3954	0.0841	-9.8
352.25	1.7680E+6	4.3954	0.0829	-6.0
352.42	1.7690E+6	4.3982	0.0833	-7.3
352.58	1.7700E+6	4.3982	0.0823	-1.6
352.75	1.7710E+6	4.3968	0.0848	-5.4
352.93	1.7720E+6	4.3968	0.0842	-6.4
353.12	1.7730E+6	4.3883	0.0828	-6.7
353.30	1.7740E+6	4.3869	0.0836	-7.3
353.46	1.7750E+6	4.3982	0.0833	-5.1
353.63	1.7760E+6	4.3855	0.0827	-8.0
353.80	1.7770E+6	4.3869	0.0845	-2.9
354.00	1.7780E+6	4.3925	0.0833	-3.9
354.16	1.7790E+6	4.3982	0.0828	-4.2
354.33	1.7800E+6	4.3996	0.0824	-1.6
354.51	1.7810E+6	4.3855	0.0822	-6.4
354.68	1.7820E+6	4.3954	0.0827	-3.5
354.86	1.7830E+6	4.3883	0.0824	-10.3
355.06	1.7840E+6	4.3826	0.0837	+0.6
355.24	1.7850E+6	4.3883	0.0834	-7.7
355.41	1.7860E+6	4.3798	0.0824	-8.1
355.59	1.7870E+6	4.3841	0.0824	-1.0
355.76	1.7880E+6	4.3883	0.0823	-6.1
355.94	1.7890E+6	4.3911	0.0819	-7.7
356.11	1.7900E+6	4.3841	0.0815	-4.2
356.26	1.7910E+6	4.3869	0.0808	-3.9
356.44	1.7920E+6	4.3897	0.0810	-2.6
356.61	1.7930E+6	4.3911	0.0811	-6.5
356.77	1.7940E+6	4.3798	0.0774	+2.9
356.94	1.7950E+6	4.3897	0.0816	-8.1
357.11	1.7960E+6	4.3883	0.0824	-6.1
357.27	1.7970E+6	4.3869	0.0824	-6.8
357.44	1.7980E+6	4.3869	0.0824	-3.9
357.61	1.7990E+6	4.3897	0.0816	-5.5
357.77	1.8000E+6	4.3883	0.0824	-9.0
357.94	1.8010E+6	4.3883	0.0818	-4.5
358.09	1.8020E+6	4.3855	0.0806	+0.0
358.27	1.8030E+6	4.3798	0.0814	-6.2
358.45	1.8040E+6	4.3784	0.0815	-5.5
358.64	1.8050E+6	4.3826	0.0816	-5.5
358.80	1.8060E+6	4.3826	0.0813	-3.3
358.99	1.8070E+6	4.3940	0.0810	-5.2
359.15	1.8080E+6	4.3855	0.0806	-8.8
359.32	1.8090E+6	4.3883	0.0821	-5.9
359.52	1.8100E+6	4.3869	0.0826	-4.9
359.68	1.8110E+6	4.3883	0.0811	-9.4
359.87	1.8120E+6	4.3897	0.0804	-8.8
360.03	1.8130E+6	4.3770	0.0822	-5.9
360.22	1.8140E+6	4.3883	0.0825	-2.0
360.38	1.8150E+6	4.3742	0.0800	-0.3
360.58	1.8160E+6	4.3826	0.0807	-2.9
360.73	1.8170E+6	4.3727	0.0818	-5.2
360.90	1.8180E+6	4.3770	0.0808	-6.9
361.06	1.8190E+6	4.3812	0.0792	-5.2
361.25	1.8200E+6	4.3798	0.0769	-4.3
361.45	1.8210E+6	4.3756	0.0805	-4.6
361.63	1.8220E+6	4.3784	0.0786	-4.6
361.80	1.8230E+6	4.3756	0.0809	-6.2
361.96	1.8240E+6	4.3812	0.0792	-7.9
362.15	1.8250E+6	4.3742	0.0794	+2.0
362.31	1.8260E+6	4.3826	0.0800	-4.3
362.51	1.8270E+6	4.3826	0.0782	-8.2
362.68	1.8280E+6	4.3671	0.0787	-8.9
362.88	1.8290E+6	4.3756	0.0797	-6.3
363.04	1.8300E+6	4.3742	0.0797	-8.6
363.21	1.8310E+6	4.3784	0.0775	-10.5
363.39	1.8320E+6	4.3798	0.0812	-8.3
363.58	1.8330E+6	4.3770	0.0790	-5.6
363.76	1.8340E+6	4.3713	0.0798	-0.3
363.91	1.8350E+6	4.3742	0.0777	-4.3
364.09	1.8360E+6	4.3770	0.0789	-7.6
364.27	1.8370E+6	4.3685	0.0785	-9.3
364.49	1.8380E+6	4.3770	0.0803	-5.0
364.69	1.8390E+6	4.3841	0.0795	-6.0
364.87	1.8400E+6	4.3798	Inf	-371.0
365.04	1.8410E+6	4.3770	0.0805	-3.0
365.22	1.8420E+6	4.3756	0.0793	-4.3
365.41	1.8430E+6	4.3727	0.0780	-4.3
365.59	1.8440E+6	4.3685	0.0797	-6.6
365.79	1.8450E+6	4.3727	0.0798	-7.3
365.95	1.8460E+6	4.3671	0.0808	+0.7
366.15	1.8470E+6	4.3798	0.0803	-6.7
366.32	1.8480E+6	4.3643	0.0798	-6.7
366.54	1.8490E+6	4.3798	0.0760	-2.0
366.74	1.8500E+6	4.3713	0.0788	-7.3
366.92	1.8510E+6	4.3713	0.0798	-5.3
367.08	1.8520E+6	4.3713	0.0784	-2.0
367.27	1.8530E+6	4.3699	0.0786	-5.3
367.47	1.8540E+6	4.3770	0.0804	-6.7
367.68	1.8550E+6	4.3841	0.0782	+0.3
367.87	1.8560E+6	4.3657	0.0790	+0.0
368.07	1.8570E+6	4.3798	0.0798	-6.4
368.25	1.8580E+6	4.3784	0.0787	-5.7
368.42	1.8590E+6	4.3770	0.0799	-6.7
368.58	1.8600E+6	4.3713	0.0784	-1.3
368.78	1.8610E+6	4.3841	0.0781	-3.0
368.95	1.8620E+6	4.3699	0.0779	-2.7
369.11	1.8630E+6	4.3628	0.0782	-1.3
369.28	1.8640E+6	4.3742	Inf	-5.0
369.46	1.8650E+6	4.3756	0.0796	-8.7
369.65	1.8660E+6	4.3628	0.0780	-4.4
369.86	1.8670E+6	4.3727	0.0782	-4.7
370.03	1.8680E+6	4.3713	0.0779	-7.1
370.18	1.8690E+6	4.3628	0.0771	-5.0
370.36	1.8700E+6	4.3713	0.0784	-4.0
370.53	1.8710E+6	4.3770	0.0784	-5.4
370.69	1.8720E+6	4.3770	0.0787	-4.0
370.89	1.8730E+6	4.3742	0.0776	-6.8
371.06	1.8740E+6	4.3685	0.0762	-6.4
371.26	1.8750E+6	4.3727	0.0768	-0.7
371.43	1.8760E+6	4.3544	0.0792	-8.4
371.63	1.8770E+6	4.3586	0.0769	-6.4
371.82	1.8780E+6	4.3643	0.0774	-2.4
372.01	1.8790E+6	4.3614	0.0775	-4.7
372.18	1.8800E+6	4.3671	0.0776	-6.8
372.34	1.8810E+6	4.3727	0.0763	-4.4
372.54	1.8820E+6	4.3529	0.0775	-1.7
372.74	1.8830E+6	4.3727	0.0778	-3.7
372.94	1.8840E+6	4.3657	0.0771	-6.4
373.11	1.8850E+6	4.3643	0.0774	-5.4
373.27	1.8860E+6	4.3657	0.0766	-3.7
373.45	1.8870E+6	4.3713	0.0795	-5.4
373.65	1.8880E+6	4.3742	0.0775	-4.8
373.84	1.8890E+6	4.3544	0.0768	-4.8
374.05	1.8900E+6	4.3657	0.0766	-5.1
374.22	1.8910E+6	4.3770	0.0773	-0.7
374.42	1.8920E+6	4.3586	0.0754	-7.1
374.62	1.8930E+6	4.3699	0.0768	-6.5
374.80	1.8940E+6	4.3586	0.0770	-6.5
374.97	1.8950E+6	4.3713	0.0770	-3.4
375.17	1.8960E+6	4.3586	Inf	+Inf
375.35	1.8970E+6	4.3671	0.0729	-8.5
375.54	1.8980E+6	4.3600	0.0769	-2.4
375.72	1.8990E+6	4.3558	0.0763	-5.1
375.88	1.9000E+6	4.3586	0.0767	-3.4
376.05	1.9010E+6	4.3628	0.0769	-2.7
376.22	1.9020E+6	4.3529	0.0771	-4.4
376.40	1.9030E+6	4.3614	0.0757	-6.5
376.57	1.9040E+6	4.3671	0.0760	-4.5
376.73	1.9050E+6	4.3558	0.0769	-4.8
376.90	1.9060E+6	4.3657	0.0761	-7.2
377.05	1.9070E+6	4.3586	0.0756	-1.0
377.23	1.9080E+6	4.3614	0.0764	-1.7
377.41	1.9090E+6	4.3643	0.0721	-12.7
377.60	1.9100E+6	4.3544	0.0779	-6.9
377.78	1.9110E+6	4.3544	0.0761	-1.4
377.94	1.9120E+6	4.3699	0.0770	-3.8
378.11	1.9130E+6	4.3586	0.0752	-0.7
378.31	1.9140E+6	4.3572	0.0756	-3.8
378.48	1.9150E+6	4.3558	0.0735	-3.8
378.66	1.9160E+6	4.3586	0.0760	-4.5
378.84	1.9170E+6	4.3501	0.0749	-7.3
379.03	1.9180E+6	4.3501	0.0768	-7.6
379.21	1.9190E+6	4.3586	0.0772	-4.8
379.41	1.9200E+6	4.3515	Inf	-3.5
379.57	1.9210E+6	4.3614	0.0771	-4.5
379.74	1.9220E+6	4.3501	0.0770	-7.6
379.91	1.9230E+6	4.3487	0.0764	-6.6
380.07	1.9240E+6	4.3515	0.0760	-4.9
380.24	1.9250E+6	4.3643	0.0758	-3.1
380.41	1.9260E+6	4.3600	0.0764	-7.6
380.57	1.9270E+6	4.3586	0.0758	-3.5
380.74	1.9280E+6	4.3614	0.0752	-8.7
380.92	1.9290E+6	4.3501	0.0750	-5.9
381.09	1.9300E+6	4.3416	0.0734	-8.0
381.29	1.9310E+6	4.3628	0.0760	-5.6
381.49	1.9320E+6	4.3501	0.0767	-4.5
381.65	1.9330E+6	4.3600	0.0738	-2.1
381.80	1.9340E+6	4.3558	0.0757	-4.2
381.95	1.9350E+6	4.3544	0.0756	-8.7
382.10	1.9360E+6	4.3487	0.0743	-3.1
382.24	1.9370E+6	4.3487	0.0734	-3.1
382.40	1.9380E+6	4.3487	0.0744	-3.1
382.58	1.9390E+6	4.3572	0.0747	-3.1
382.72	1.9400E+6	4.3346	0.0765	-8.0
382.90	1.9410E+6	4.3445	0.0752	-2.8
383.08	1.9420E+6	4.3501	0.0725	-7.7
383.25	1.9430E+6	4.3558	0.0744	-5.3
383.43	1.9440E+6	4.3529	0.0739	-1.8
383.63	1.9450E+6	4.3544	0.0767	-4.2
383.82	1.9460E+6	4.3501	0.0746	-7.4
384.00	1.9470E+6	4.3515	0.0748	-5.3
384.17	1.9480E+6	4.3501	0.0736	-9.1
384.35	1.9490E+6	4.3487	0.0706	-4.2
384.53	1.9500E+6	4.3501	0.0745	-5.6
384.70	1.9510E+6	4.3374	0.0752	-6.3
384.88	1.9520E+6	4.3558	0.0746	-10.6
385.05	1.9530E+6	4.3346	0.0746	+1.1
385.21	1.9540E+6	4.3473	0.0709	-0.7
385.41	1.9550E+6	4.3529	0.0740	-3.2
385.58	1.9560E+6	4.3459	0.0739	-4.9
385.75	1.9570E+6	4.3473	0.0738	-4.2
385.91	1.9580E+6	4.3544	0.0740	-2.8
386.08	1.9590E+6	4.3445	0.0743	-4.2
386.26	1.9600E+6	4.3445	0.0751	-4.9
386.43	1.9610E+6	4.3459	0.0717	-9.5
386.59	1.9620E+6	4.3643	0.0736	-8.5
386.76	1.9630E+6	4.3430	0.0750	-4.2
386.96	1.9640E+6	4.3459	0.0744	+0.7
387.13	1.9650E+6	4.3388	0.0735	-5.3
387.33	1.9660E+6	4.3459	0.0736	-6.0
387.49	1.9670E+6	4.3459	0.0738	-7.4
387.64	1.9680E+6	4.3402	0.0702	+0.7
387.84	1.9690E+6	4.3501	0.0748	-10.6
388.04	1.9700E+6	4.3402	0.0739	-2.8
388.26	1.9710E+6	4.3430	0.0723	-8.5
388.44	1.9720E+6	4.3402	0.0728	-3.9
388.61	1.9730E+6	4.3459	0.0735	-6.0
388.81	1.9740E+6	4.3360	0.0737	-4.6
388.97	1.9750E+6	4.3374	0.0725	-8.9
389.14	1.9760E+6	4.3529	0.0746	-5.3
389.36	1.9770E+6	4.3445	0.0731	-1.4
389.54	1.9780E+6	4.3487	0.0729	-1.8
389.69	1.9790E+6	4.3374	0.0745	-4.3
389.87	1.9800E+6	4.3445	0.0739	-8.2
390.05	1.9810E+6	4.3487	0.0737	-4.3
390.22	1.9820E+6	4.3487	0.0737	-7.1
390.39	1.9830E+6	4.3416	0.0724	-11.1
390.60	1.9840E+6	4.3346	0.0738	-1.4
390.77	1.9850E+6	4.3402	0.0728	-5.0
390.94	1.9860E+6	4.3459	0.0727	-1.1
391.12	1.9870E+6	4.3388	0.0714	-1.1
391.32	1.9880E+6	4.3515	0.0726	-4.6
391.52	1.9890E+6	4.3416	0.0734	-2.9
391.71	1.9900E+6	4.3332	0.0730	-5.4
391.88	1.9910E+6	4.3374	0.0715	-9.3
392.06	1.9920E+6	4.3430	0.0727	-7.2
392.23	1.9930E+6	4.3473	0.0724	-2.5
392.40	1.9940E+6	4.3289	0.0734	-5.0
392.60	1.9950E+6	4.3332	0.0730	-4.3
392.76	1.9960E+6	4.3402	0.0719	-5.0
392.96	1.9970E+6	4.3374	0.0720	-7.2
393.13	1.9980E+6	4.3388	0.0730	-6.8
393.30	1.9990E+6	4.3416	0.0727	-5.4
393.46	2.0000E+6	4.3586	0.0723	-5.8
