#date: 15.10.2020	time: 14:42:22
#t (s)	f (Hz)	A1 (V)	A2 (V)	phase (deg)
15.75	1.0000E+1	1.5230	Inf	+Inf
16.03	5.1000E+2	2.3687	Inf	+Inf
16.28	1.0100E+3	2.3673	0.0481	-237.2
16.66	1.5100E+3	2.3811	0.0724	+108.0
16.91	2.0100E+3	2.4002	0.0958	+116.5
17.16	2.5100E+3	2.4242	0.1178	+119.1
17.39	3.0100E+3	2.4554	0.1384	+123.3
17.61	3.5100E+3	2.4875	0.1603	+125.7
17.84	4.0100E+3	2.5238	0.1786	+129.1
18.06	4.5100E+3	2.5613	0.1984	+131.4
18.27	5.0100E+3	2.6013	0.2146	+138.7
18.49	5.5100E+3	2.6408	0.2314	+140.8
18.71	6.0100E+3	2.6816	0.2457	+146.6
18.92	6.5100E+3	2.7241	0.2602	+149.6
19.16	7.0100E+3	2.7675	0.2748	+151.8
19.39	7.5100E+3	2.8149	0.2849	+155.2
19.61	8.0100E+3	2.8628	0.2967	+156.1
19.82	8.5100E+3	2.9071	0.3068	+160.7
20.04	9.0100E+3	2.9503	0.3157	+161.9
20.27	9.5100E+3	2.9922	0.3248	+166.2
20.50	1.0010E+4	3.0294	0.3311	+166.4
20.72	1.0510E+4	3.0691	0.3381	+167.1
20.95	1.1010E+4	3.1007	0.3448	+169.5
21.17	1.1510E+4	3.1323	0.3512	+172.9
21.40	1.2010E+4	3.1650	0.3563	+176.3
21.62	1.2510E+4	3.2025	0.3605	+176.6
21.85	1.3010E+4	3.2381	0.3649	+177.7
22.08	1.3510E+4	3.2707	0.3684	-179.2
22.30	1.4010E+4	3.3016	0.3725	-176.0
22.51	1.4510E+4	3.3312	0.3747	-176.7
22.73	1.5010E+4	3.3607	0.3769	-175.0
22.96	1.5510E+4	3.3899	0.3795	-172.1
23.20	1.6010E+4	3.4136	0.3812	-171.2
23.41	1.6510E+4	3.4447	0.3820	-170.4
23.63	1.7010E+4	3.4634	0.3829	-168.4
23.81	1.7510E+4	3.4876	0.3834	-165.9
24.04	1.8010E+4	3.5064	0.3836	-167.7
24.24	1.8510E+4	3.5188	0.3831	-163.6
24.44	1.9010E+4	3.5426	0.3827	-162.5
24.64	1.9510E+4	3.5640	0.3824	-161.2
24.86	2.0010E+4	3.5886	0.3828	-161.9
25.06	2.0510E+4	3.6120	0.3824	-159.5
25.26	2.1010E+4	3.6316	0.3824	-160.0
25.44	2.1510E+4	3.6570	0.3808	-156.9
25.64	2.2010E+4	3.6757	0.3810	-154.7
25.84	2.2510E+4	3.6936	0.3794	-156.7
26.06	2.3010E+4	3.7133	0.3782	-154.0
26.26	2.3510E+4	3.7318	0.3780	-154.7
26.47	2.4010E+4	3.7485	0.3766	-151.6
26.70	2.4510E+4	3.7635	0.3745	-153.5
26.91	2.5010E+4	3.7798	0.3736	-150.9
27.11	2.5510E+4	3.7915	0.3723	-147.0
27.30	2.6010E+4	3.8081	0.3705	-148.5
27.52	2.6510E+4	3.8219	0.3675	-148.8
27.72	2.7010E+4	3.8378	0.3661	-146.4
27.95	2.7510E+4	3.8527	0.3655	-147.9
28.14	2.8010E+4	3.8667	0.3624	-145.0
28.35	2.8510E+4	3.8819	0.3606	-147.2
28.55	2.9010E+4	3.8949	0.3590	-142.5
28.75	2.9510E+4	3.9075	0.3565	-143.9
28.97	3.0010E+4	3.9220	0.3553	-142.7
29.17	3.0510E+4	3.9341	0.3530	-142.3
29.37	3.1010E+4	3.9441	0.3507	-141.3
29.57	3.1510E+4	3.9556	0.3486	-140.5
29.80	3.2010E+4	3.9659	0.3465	-142.9
29.98	3.2510E+4	3.9795	0.3445	-137.8
30.21	3.3010E+4	3.9920	0.3427	-140.8
30.41	3.3510E+4	4.0029	0.3404	-139.3
30.65	3.4010E+4	4.0171	0.3381	-137.0
30.83	3.4510E+4	4.0263	0.3359	-137.3
31.05	3.5010E+4	4.0356	0.3349	-138.1
31.26	3.5510E+4	4.0476	0.3321	-135.5
31.46	3.6010E+4	4.0568	0.3300	-137.6
31.64	3.6510E+4	4.0626	0.3281	-136.1
31.86	3.7010E+4	4.0776	0.3254	-138.1
32.06	3.7510E+4	4.0838	0.3244	-134.7
32.24	3.8010E+4	4.0883	0.3215	-134.8
32.46	3.8510E+4	4.0985	0.3198	-132.9
32.68	3.9010E+4	4.1100	0.3181	-135.8
32.88	3.9510E+4	4.1151	0.3157	-133.5
33.06	4.0010E+4	4.1226	0.3137	-134.3
33.27	4.0510E+4	4.1313	0.3119	-131.1
33.47	4.1010E+4	4.1373	0.3106	-130.7
33.66	4.1510E+4	4.1460	0.3083	-131.2
33.87	4.2010E+4	4.1541	0.3060	-132.6
34.07	4.2510E+4	4.1630	0.3044	-129.9
34.26	4.3010E+4	4.1688	0.3023	-133.1
34.47	4.3510E+4	4.1704	0.3004	-132.6
34.67	4.4010E+4	4.1786	0.2982	-128.5
34.89	4.4510E+4	4.1854	0.2969	-129.6
35.07	4.5010E+4	4.1940	0.2948	-127.6
35.27	4.5510E+4	4.1970	0.2936	-126.1
35.45	4.6010E+4	4.2029	0.2913	-126.1
35.69	4.6510E+4	4.2097	0.2892	-126.6
35.89	4.7010E+4	4.2169	0.2876	-127.5
36.07	4.7510E+4	4.2250	0.2855	-126.8
36.27	4.8010E+4	4.2293	0.2839	-125.3
36.50	4.8510E+4	4.2310	0.2827	-124.2
36.69	4.9010E+4	4.2370	0.2814	-127.4
36.88	4.9510E+4	4.2417	0.2786	-124.1
37.10	5.0010E+4	4.2476	0.2764	-126.1
37.30	5.0510E+4	4.2523	0.2749	-126.1
37.50	5.1010E+4	4.2562	0.2746	-122.7
37.66	5.1510E+4	4.2576	0.2719	-124.4
37.88	5.2010E+4	4.2633	0.2708	-121.4
38.08	5.2510E+4	4.2657	0.2690	-122.6
38.26	5.3010E+4	4.2738	0.2678	-124.1
38.46	5.3510E+4	4.2757	0.2661	-124.5
38.66	5.4010E+4	4.2790	0.2648	-124.5
38.84	5.4510E+4	4.2844	0.2632	-125.1
39.03	5.5010E+4	4.2914	0.2620	-120.9
39.24	5.5510E+4	4.2886	0.2600	-121.1
39.43	5.6010E+4	4.2938	0.2597	-121.9
39.59	5.6510E+4	4.2992	0.2578	-122.1
39.78	5.7010E+4	4.2996	0.2558	-122.1
39.96	5.7510E+4	4.3071	0.2549	-120.4
40.14	5.8010E+4	4.3078	0.2523	-118.6
40.33	5.8510E+4	4.3139	0.2510	-121.6
40.54	5.9010E+4	4.3158	0.2491	-121.1
40.72	5.9510E+4	4.3183	0.2471	-120.1
40.91	6.0010E+4	4.3184	0.2454	-120.1
41.11	6.0510E+4	4.3247	0.2444	-121.5
41.29	6.1010E+4	4.3265	0.2424	-120.6
41.47	6.1510E+4	4.3292	0.2399	-118.3
41.66	6.2010E+4	4.3340	0.2396	-121.4
41.84	6.2510E+4	4.3382	0.2374	-118.2
42.02	6.3010E+4	4.3387	0.2362	-119.0
42.20	6.3510E+4	4.3408	0.2340	-120.7
42.39	6.4010E+4	4.3459	0.2353	-115.4
42.60	6.4510E+4	4.3457	0.2329	-115.4
42.79	6.5010E+4	4.3504	0.2318	-116.2
42.97	6.5510E+4	4.3510	0.2294	-120.0
43.17	6.6010E+4	4.3518	0.2287	-114.4
43.34	6.6510E+4	4.3558	0.2280	-117.4
43.52	6.7010E+4	4.3596	0.2257	-115.3
43.70	6.7510E+4	4.3580	0.2247	-112.1
43.88	6.8010E+4	4.3650	0.2249	-119.5
44.05	6.8510E+4	4.3645	0.2231	-117.4
44.23	6.9010E+4	4.3696	0.2214	-113.7
44.42	6.9510E+4	4.3694	0.2201	-112.6
44.60	7.0010E+4	4.3708	0.2199	-114.2
44.82	7.0510E+4	4.3729	0.2188	-118.2
44.98	7.1010E+4	4.3729	0.2181	-113.4
45.18	7.1510E+4	4.3760	0.2162	-116.8
45.36	7.2010E+4	4.3771	0.2157	-112.1
45.55	7.2510E+4	4.3800	0.2142	-113.9
45.73	7.3010E+4	4.3800	0.2137	-111.7
45.90	7.3510E+4	4.3863	0.2122	-116.3
46.08	7.4010E+4	4.3877	0.2114	-112.1
46.26	7.4510E+4	4.3836	0.2111	-108.6
46.43	7.5010E+4	4.3880	0.2092	-113.3
46.61	7.5510E+4	4.3931	0.2082	-107.8
46.80	7.6010E+4	4.3927	0.2073	-110.6
46.96	7.6510E+4	4.3942	0.2062	-106.8
47.14	7.7010E+4	4.3957	0.2044	-111.9
47.33	7.7510E+4	4.3944	0.2044	-115.9
47.49	7.8010E+4	4.3982	0.2046	-113.6
47.66	7.8510E+4	4.4020	0.2019	-109.2
47.88	7.9010E+4	4.3981	0.2012	-113.5
48.11	7.9510E+4	4.4047	0.2003	-110.0
48.31	8.0010E+4	4.4053	0.1989	-110.5
48.51	8.0510E+4	4.4070	0.1983	-110.9
48.71	8.1010E+4	4.4061	0.1972	-111.0
48.91	8.1510E+4	4.4061	0.1959	-113.2
49.09	8.2010E+4	4.4085	0.1953	-111.6
49.31	8.2510E+4	4.4094	0.1935	-112.8
49.51	8.3010E+4	4.4136	0.1937	-108.5
49.69	8.3510E+4	4.4142	0.1923	-110.6
49.89	8.4010E+4	4.4143	0.1909	-111.4
50.09	8.4510E+4	4.4189	0.1916	-111.4
50.27	8.5010E+4	4.4177	0.1916	-109.4
50.45	8.5510E+4	4.4180	0.1907	-112.9
50.64	8.6010E+4	4.4224	0.1892	-108.2
50.84	8.6510E+4	4.4222	0.1874	-108.0
51.05	8.7010E+4	4.4241	0.1869	-108.7
51.24	8.7510E+4	4.4222	0.1867	-110.3
51.42	8.8010E+4	4.4254	0.1859	-107.5
51.62	8.8510E+4	4.4268	0.1853	-111.7
51.84	8.9010E+4	4.4283	0.1847	-112.8
52.02	8.9510E+4	4.4271	0.1836	-107.1
52.22	9.0010E+4	4.4316	0.1825	-107.1
52.42	9.0510E+4	4.4306	0.1841	-105.8
52.62	9.1010E+4	4.4296	0.1812	-108.8
52.82	9.1510E+4	4.4331	0.1813	-110.1
53.00	9.2010E+4	4.4362	0.1794	-105.5
53.20	9.2510E+4	4.4347	0.1788	-108.5
53.40	9.3010E+4	4.4334	0.1773	-107.9
53.62	9.3510E+4	4.4388	0.1766	-106.8
53.80	9.4010E+4	4.4395	0.1770	-105.2
53.98	9.4510E+4	4.4416	0.1757	-111.2
54.20	9.5010E+4	4.4398	0.1747	-106.0
54.38	9.5510E+4	4.4422	0.1736	-104.6
54.60	9.6010E+4	4.4446	0.1742	-111.1
54.78	9.6510E+4	4.4446	0.1724	-104.5
54.98	9.7010E+4	4.4416	0.1709	-104.3
55.18	9.7510E+4	4.4429	0.1705	-102.9
55.36	9.8010E+4	4.4466	0.1697	-106.6
55.58	9.8510E+4	4.4480	0.1686	-107.2
55.79	9.9010E+4	4.4478	0.1683	-108.5
55.98	9.9510E+4	4.4514	0.1680	-103.1
56.16	1.0001E+5	4.4483	0.1666	-107.3
56.36	1.0051E+5	4.4487	0.1656	-109.9
56.56	1.0101E+5	4.4542	0.1651	-104.6
56.76	1.0151E+5	4.4519	0.1639	-106.2
56.96	1.0201E+5	4.4519	0.1635	-107.1
57.14	1.0251E+5	4.4558	0.1638	-103.0
57.34	1.0301E+5	4.4527	0.1628	-105.1
57.57	1.0351E+5	4.4593	0.1627	-107.9
57.77	1.0401E+5	4.4522	0.1622	-106.5
57.97	1.0451E+5	4.4583	0.1613	-109.0
58.21	1.0501E+5	4.4543	0.1606	-107.1
58.40	1.0551E+5	4.4563	0.1601	-107.9
58.62	1.0601E+5	4.4546	0.1597	-110.6
58.82	1.0651E+5	4.4613	0.1589	-103.1
59.04	1.0701E+5	4.4594	0.1580	-106.0
59.22	1.0751E+5	4.4614	0.1575	-102.8
59.42	1.0801E+5	4.4601	0.1570	-105.0
59.59	1.0851E+5	4.4621	0.1560	-103.5
59.77	1.0901E+5	4.4626	0.1571	-105.7
59.95	1.0951E+5	4.4628	0.1552	-104.9
60.13	1.1001E+5	4.4665	0.1555	-99.9
60.30	1.1051E+5	4.4621	0.1540	-103.3
60.48	1.1101E+5	4.4637	0.1538	-102.1
60.65	1.1151E+5	4.4667	0.1538	-102.0
60.81	1.1201E+5	4.4672	0.1526	-106.0
61.02	1.1251E+5	4.4693	0.1529	-100.6
61.20	1.1301E+5	4.4662	0.1520	-102.3
61.40	1.1351E+5	4.4713	0.1524	-97.4
61.62	1.1401E+5	4.4705	0.1510	-103.9
61.81	1.1451E+5	4.4741	0.1505	-102.9
62.03	1.1501E+5	4.4739	0.1498	-104.0
62.21	1.1551E+5	4.4794	0.1493	-101.4
62.40	1.1601E+5	4.4733	0.1485	-105.8
62.60	1.1651E+5	4.4753	0.1485	-102.6
62.78	1.1701E+5	4.4780	0.1474	-100.7
62.98	1.1751E+5	4.4719	0.1473	-104.5
63.16	1.1801E+5	4.4768	0.1472	-107.7
63.34	1.1851E+5	4.4749	0.1489	-96.2
63.54	1.1901E+5	4.4730	0.1468	-102.4
63.74	1.1951E+5	4.4794	0.1452	-104.0
63.94	1.2001E+5	4.4777	0.1454	-99.2
64.13	1.2051E+5	4.4778	0.1450	-98.4
64.31	1.2101E+5	4.4798	0.1442	-100.7
64.51	1.2151E+5	4.4811	0.1431	-96.9
64.71	1.2201E+5	4.4808	0.1436	-105.3
64.91	1.2251E+5	4.4809	0.1437	-98.2
65.09	1.2301E+5	4.4822	0.1428	-103.4
65.31	1.2351E+5	4.4811	0.1432	-100.5
65.49	1.2401E+5	4.4832	0.1423	-103.6
65.71	1.2451E+5	4.4814	0.1425	-95.7
65.91	1.2501E+5	4.4856	0.1420	-101.9
66.14	1.2551E+5	4.4804	0.1403	-101.7
66.36	1.2601E+5	4.4867	0.1410	-100.9
66.57	1.2651E+5	4.4821	0.1400	-99.0
66.80	1.2701E+5	4.4890	0.1392	-103.9
67.02	1.2751E+5	4.4826	0.1401	-100.5
67.25	1.2801E+5	4.4857	0.1391	-98.3
67.49	1.2851E+5	4.4818	0.1383	-104.6
67.69	1.2901E+5	4.4874	0.1390	-102.9
67.88	1.2951E+5	4.4859	0.1376	-97.4
68.08	1.3001E+5	4.4846	0.1369	-103.5
68.27	1.3051E+5	4.4821	0.1367	-99.0
68.47	1.3101E+5	4.4910	0.1377	-95.3
68.67	1.3151E+5	4.4918	0.1364	-107.2
68.88	1.3201E+5	4.4893	0.1361	-101.1
69.07	1.3251E+5	4.4935	0.1357	-103.0
69.25	1.3301E+5	4.4924	0.1352	-108.4
69.43	1.3351E+5	4.4901	0.1346	-102.2
69.63	1.3401E+5	4.4931	0.1336	-102.9
69.83	1.3451E+5	4.4935	0.1332	-101.9
70.01	1.3501E+5	4.4903	0.1330	-98.5
70.20	1.3551E+5	4.4906	0.1326	-101.5
70.38	1.3601E+5	4.4898	0.1330	-103.6
70.56	1.3651E+5	4.4956	0.1322	-96.4
70.76	1.3701E+5	4.4954	0.1315	-102.9
70.95	1.3751E+5	4.4891	0.1307	-107.3
71.16	1.3801E+5	4.4930	0.1312	-100.6
71.36	1.3851E+5	4.4935	0.1297	-103.1
71.56	1.3901E+5	4.4937	0.1300	-97.9
71.74	1.3951E+5	4.4947	0.1307	-104.1
71.93	1.4001E+5	4.4948	0.1299	-98.2
72.11	1.4051E+5	4.4941	0.1291	-99.6
72.33	1.4101E+5	4.5026	0.1299	-96.9
72.53	1.4151E+5	4.4985	0.1283	-91.8
72.72	1.4201E+5	4.4964	0.1291	-99.3
72.91	1.4251E+5	4.5010	0.1278	-101.4
73.11	1.4301E+5	4.4980	0.1273	-104.4
73.29	1.4351E+5	4.4995	0.1266	-98.1
73.47	1.4401E+5	4.4952	0.1264	-95.8
73.67	1.4451E+5	4.4969	0.1260	-97.9
73.86	1.4501E+5	4.4985	0.1260	-100.2
74.04	1.4551E+5	4.5002	0.1257	-101.0
74.22	1.4601E+5	4.5017	0.1260	-100.2
74.40	1.4651E+5	4.4982	0.1252	-95.9
74.59	1.4701E+5	4.4995	0.1250	-101.4
74.79	1.4751E+5	4.5006	0.1246	-100.4
74.97	1.4801E+5	4.4995	0.1246	-103.7
75.15	1.4851E+5	4.5012	0.1246	-106.7
75.34	1.4901E+5	4.5036	0.1235	-99.9
75.53	1.4951E+5	4.5023	0.1234	-100.0
75.73	1.5001E+5	4.5013	0.1235	-103.4
75.92	1.5051E+5	4.5027	0.1230	-105.8
76.10	1.5101E+5	4.4979	0.1233	-97.9
76.28	1.5151E+5	4.5021	0.1220	-107.6
76.48	1.5201E+5	4.5072	0.1218	-97.2
76.67	1.5251E+5	4.5031	0.1215	-99.8
76.85	1.5301E+5	4.5029	0.1221	-106.2
77.03	1.5351E+5	4.5081	0.1205	-104.4
77.23	1.5401E+5	4.5085	0.1206	-97.8
77.41	1.5451E+5	4.5106	0.1216	-91.5
77.61	1.5501E+5	4.5050	0.1199	-99.4
77.81	1.5551E+5	4.5027	0.1203	-101.7
78.00	1.5601E+5	4.5065	0.1193	-92.6
78.20	1.5651E+5	4.5079	0.1193	-95.4
78.38	1.5701E+5	4.5048	0.1196	-96.7
78.58	1.5751E+5	4.5113	0.1193	-94.4
78.78	1.5801E+5	4.5065	0.1176	-98.8
78.98	1.5851E+5	4.5044	0.1176	-95.3
79.16	1.5901E+5	4.5046	0.1179	-99.4
79.34	1.5951E+5	4.5113	0.1168	-97.4
79.53	1.6001E+5	4.5130	0.1172	-97.0
79.73	1.6051E+5	4.5113	0.1169	-102.4
79.93	1.6101E+5	4.5123	0.1175	-103.6
80.14	1.6151E+5	4.5113	0.1194	-100.8
80.37	1.6201E+5	4.5139	0.1157	-98.8
80.59	1.6251E+5	4.5085	0.1153	-108.1
80.81	1.6301E+5	4.5082	0.1159	-98.9
80.99	1.6351E+5	4.5109	0.1150	-99.6
81.19	1.6401E+5	4.5082	0.1163	-93.2
81.39	1.6451E+5	4.5139	0.1147	-99.2
81.62	1.6501E+5	4.5113	0.1154	-98.8
81.86	1.6551E+5	4.5096	0.1152	-98.7
82.06	1.6601E+5	4.5129	0.1148	-98.6
82.25	1.6651E+5	4.5156	0.1135	-100.1
82.47	1.6701E+5	4.5128	0.1153	+251.0
82.67	1.6751E+5	4.5113	0.1140	-97.7
82.89	1.6801E+5	4.5200	0.1144	-105.2
83.09	1.6851E+5	4.5184	0.1142	-94.4
83.27	1.6901E+5	4.5142	0.1133	-98.2
83.47	1.6951E+5	4.5128	0.1129	-98.9
83.65	1.7001E+5	4.5142	0.1122	-97.3
83.85	1.7051E+5	4.5170	0.1124	-95.7
84.03	1.7101E+5	4.5156	0.1124	-98.7
84.22	1.7151E+5	4.5156	0.1127	-102.5
84.42	1.7201E+5	4.5184	0.1119	-96.5
84.61	1.7251E+5	4.5198	0.1126	-106.5
84.82	1.7301E+5	4.5198	0.1118	-92.1
85.03	1.7351E+5	4.5170	0.1116	-100.0
85.22	1.7401E+5	4.5170	0.1119	-98.6
85.40	1.7451E+5	4.5170	0.1108	-98.4
85.61	1.7501E+5	4.5142	0.1118	-96.3
85.81	1.7551E+5	4.5184	0.1107	-92.5
86.01	1.7601E+5	4.5170	0.1104	-92.6
86.19	1.7651E+5	4.5156	0.1109	-92.0
86.38	1.7701E+5	4.5184	0.1091	-101.1
86.58	1.7751E+5	4.5184	0.1106	-101.4
86.78	1.7801E+5	4.5156	0.1106	-99.7
86.96	1.7851E+5	4.5184	0.1093	-100.8
87.16	1.7901E+5	4.5184	0.1093	-103.4
87.34	1.7951E+5	4.5198	0.1098	-102.5
87.54	1.8001E+5	4.5184	0.1091	-99.8
87.74	1.8051E+5	4.5142	0.1103	-98.7
87.96	1.8101E+5	4.5227	0.1083	-97.3
88.16	1.8151E+5	4.5198	0.1089	-95.8
88.34	1.8201E+5	4.5156	0.1082	-100.3
88.56	1.8251E+5	4.5170	0.1047	-85.7
88.76	1.8301E+5	4.5184	0.1076	-96.1
88.96	1.8351E+5	4.5212	0.1095	-92.8
89.16	1.8401E+5	4.5170	0.1090	-90.8
89.34	1.8451E+5	4.5198	0.1075	-101.7
89.54	1.8501E+5	4.5227	0.1074	-95.7
89.72	1.8551E+5	4.5255	0.1065	-98.3
89.94	1.8601E+5	4.5227	0.1070	-95.2
90.14	1.8651E+5	4.5212	0.1078	-94.9
90.32	1.8701E+5	4.5212	0.1076	-97.3
90.50	1.8751E+5	4.5227	0.1056	-96.1
90.70	1.8801E+5	4.5212	0.1067	-92.6
90.89	1.8851E+5	4.5212	0.1064	-99.9
91.07	1.8901E+5	4.5241	0.1068	-102.1
91.27	1.8951E+5	4.5227	0.1067	-94.2
91.45	1.9001E+5	4.5297	0.1048	-95.8
91.67	1.9051E+5	4.5212	0.1056	-102.2
91.87	1.9101E+5	4.5241	0.1048	-92.5
92.07	1.9151E+5	4.5227	0.1047	-92.9
92.25	1.9201E+5	4.5255	0.1048	-103.0
92.43	1.9251E+5	4.5269	0.1050	-99.7
92.62	1.9301E+5	4.5255	0.1042	-88.5
92.80	1.9351E+5	4.5241	0.1064	-96.8
93.00	1.9401E+5	4.5227	0.1042	-91.9
93.20	1.9451E+5	4.5311	0.1043	-95.7
93.38	1.9501E+5	4.5269	0.1049	-99.3
93.56	1.9551E+5	4.5297	0.1044	-97.9
93.75	1.9601E+5	4.5241	0.1057	-102.5
93.94	1.9651E+5	4.5255	0.1033	-97.2
94.16	1.9701E+5	4.5283	0.1042	-100.6
94.36	1.9751E+5	4.5283	0.1037	-93.7
94.56	1.9801E+5	4.5311	0.1034	-93.7
94.74	1.9851E+5	4.5241	Inf	-100.5
94.93	1.9901E+5	4.5255	0.1032	-89.2
95.11	1.9951E+5	4.5255	0.1022	-93.1
95.31	2.0001E+5	4.5283	0.1047	-105.2
95.51	2.0051E+5	4.5283	0.1027	-99.4
95.71	2.0101E+5	4.5227	0.1036	-89.3
95.89	2.0151E+5	4.5255	0.1018	-100.0
96.11	2.0201E+5	4.5269	0.1024	-93.3
96.29	2.0251E+5	4.5255	0.1027	-101.1
96.51	2.0301E+5	4.5326	0.1025	-107.5
96.69	2.0351E+5	4.5311	0.1017	-98.9
96.89	2.0401E+5	4.5283	0.1021	-95.9
97.07	2.0451E+5	4.5311	0.1030	-102.4
97.29	2.0501E+5	4.5326	0.1022	-106.5
97.49	2.0551E+5	4.5269	0.1018	-94.6
97.67	2.0601E+5	4.5283	0.1017	-98.4
97.86	2.0651E+5	4.5311	0.1012	-99.1
98.04	2.0701E+5	4.5241	0.1016	-97.2
98.24	2.0751E+5	4.5311	0.1017	-103.4
98.42	2.0801E+5	4.5283	0.1006	-94.6
98.64	2.0851E+5	4.5255	0.1002	-89.0
98.82	2.0901E+5	4.5311	0.0998	-101.1
99.00	2.0951E+5	4.5297	0.1025	-88.6
99.20	2.1001E+5	4.5311	0.1005	-99.2
99.40	2.1051E+5	4.5326	0.1014	-98.9
99.60	2.1101E+5	4.5297	0.1030	-105.2
99.80	2.1151E+5	4.5368	0.1007	-96.8
100.00	2.1201E+5	4.5354	0.1006	-99.9
100.18	2.1251E+5	4.5311	0.0998	-95.2
100.37	2.1301E+5	4.5311	0.1005	-95.3
100.55	2.1351E+5	4.5311	0.0997	-93.1
100.73	2.1401E+5	4.5311	0.1011	-111.7
100.92	2.1451E+5	4.5340	0.0999	-92.3
101.10	2.1501E+5	4.5311	0.1005	-98.4
101.28	2.1551E+5	4.5340	0.1012	-112.5
101.48	2.1601E+5	4.5354	0.1001	-101.2
101.68	2.1651E+5	4.5368	0.0999	-112.6
101.86	2.1701E+5	4.5354	0.0994	-109.9
102.06	2.1751E+5	4.5354	0.0993	-107.6
102.25	2.1801E+5	4.5311	0.0990	-100.0
102.43	2.1851E+5	4.5283	0.0993	-99.0
102.61	2.1901E+5	4.5326	0.1009	-93.6
102.81	2.1951E+5	4.5340	0.0997	-93.8
103.01	2.2001E+5	4.5326	0.0996	-91.1
103.19	2.2051E+5	4.5354	0.0980	-96.5
103.39	2.2101E+5	4.5311	0.0982	-100.2
103.58	2.2151E+5	4.5311	0.0989	-92.8
103.78	2.2201E+5	4.5326	0.0990	-87.6
103.96	2.2251E+5	4.5326	0.0986	-103.1
104.14	2.2301E+5	4.5354	0.0992	-106.2
104.33	2.2351E+5	4.5396	0.0997	-93.6
104.51	2.2401E+5	4.5340	0.0982	-91.1
104.71	2.2451E+5	4.5326	0.0994	-103.6
104.91	2.2501E+5	4.5368	0.0998	-106.4
105.11	2.2551E+5	4.5340	0.0985	-96.7
105.31	2.2601E+5	4.5340	0.0996	-97.3
105.49	2.2651E+5	4.5382	0.0984	-102.1
105.67	2.2701E+5	4.5354	0.0983	-100.2
105.87	2.2751E+5	4.5354	0.0985	-105.0
106.07	2.2801E+5	4.5382	0.0983	-114.8
106.25	2.2851E+5	4.5368	0.0985	-87.5
106.44	2.2901E+5	4.5311	0.0979	-111.0
106.64	2.2951E+5	4.5311	0.0979	-89.5
106.82	2.3001E+5	4.5382	0.0973	-101.9
107.00	2.3051E+5	4.5311	0.0981	-94.1
107.18	2.3101E+5	4.5340	0.0980	-102.9
107.37	2.3151E+5	4.5396	0.0982	-100.7
107.55	2.3201E+5	4.5382	0.0986	-102.6
107.75	2.3251E+5	4.5354	0.0995	-103.9
107.93	2.3301E+5	4.5340	0.0978	-106.0
108.13	2.3351E+5	4.5354	0.0969	-87.3
108.32	2.3401E+5	4.5410	0.0971	-99.4
108.53	2.3451E+5	4.5326	0.0971	-91.8
108.73	2.3501E+5	4.5382	0.0974	-80.0
108.91	2.3551E+5	4.5311	0.0965	-104.6
109.11	2.3601E+5	4.5326	0.0946	-95.6
109.31	2.3651E+5	4.5354	0.0978	-102.6
109.51	2.3701E+5	4.5382	0.0962	-101.5
109.71	2.3751E+5	4.5311	0.0958	-95.7
109.91	2.3801E+5	4.5354	0.0968	-95.5
110.09	2.3851E+5	4.5340	0.0969	-90.4
110.29	2.3901E+5	4.5340	0.0962	-87.5
110.49	2.3951E+5	4.5297	0.0957	+248.4
110.68	2.4001E+5	4.5354	0.0965	-101.1
110.86	2.4051E+5	4.5354	0.0986	-99.7
111.06	2.4101E+5	4.5340	0.0968	-96.9
111.26	2.4151E+5	4.5382	0.0991	-92.7
111.46	2.4201E+5	4.5396	Inf	+Inf
111.64	2.4251E+5	4.5368	0.0957	-96.4
111.84	2.4301E+5	4.5354	0.0986	-99.1
112.04	2.4351E+5	4.5396	0.0956	-103.0
112.24	2.4401E+5	4.5410	0.0974	-95.3
112.46	2.4451E+5	4.5311	0.0963	-96.2
112.67	2.4501E+5	4.5410	0.0975	-94.7
112.91	2.4551E+5	4.5382	0.0979	-92.1
113.11	2.4601E+5	4.5340	0.0941	-97.0
113.31	2.4651E+5	4.5396	0.0989	-101.2
113.50	2.4701E+5	4.5396	0.0931	-95.4
113.70	2.4751E+5	4.5396	0.0973	-94.8
113.91	2.4801E+5	4.5410	0.0984	-101.3
114.12	2.4851E+5	4.5382	0.0984	-96.6
114.32	2.4901E+5	4.5354	0.0965	-104.7
114.52	2.4951E+5	4.5382	0.0956	-103.5
114.70	2.5001E+5	4.5410	0.0965	-97.3
114.90	2.5051E+5	4.5382	0.0963	-95.8
115.10	2.5101E+5	4.5467	0.0969	-98.9
115.32	2.5151E+5	4.5354	0.0992	-86.7
115.53	2.5201E+5	4.5368	0.0968	-104.7
115.73	2.5251E+5	4.5425	0.0983	-108.8
115.97	2.5301E+5	4.5368	0.0959	-96.0
116.20	2.5351E+5	4.5382	0.0969	+266.9
116.38	2.5401E+5	4.5425	0.0987	-93.8
116.61	2.5451E+5	4.5382	0.0966	-99.3
116.85	2.5501E+5	4.5382	0.0974	-97.9
117.05	2.5551E+5	4.5425	0.0928	-98.6
117.28	2.5601E+5	4.5425	0.0989	-92.9
117.48	2.5651E+5	4.5382	0.0987	-94.1
117.68	2.5701E+5	4.5396	0.0982	-94.8
117.90	2.5751E+5	4.5396	0.0981	-99.9
118.08	2.5801E+5	4.5368	0.0950	-94.1
118.28	2.5851E+5	4.5382	0.0992	-91.1
118.48	2.5901E+5	4.5382	Inf	+258.9
118.66	2.5951E+5	4.5396	0.0986	-105.7
118.84	2.6001E+5	4.5410	0.0979	-99.8
119.08	2.6051E+5	4.5368	0.0981	+259.1
119.28	2.6101E+5	4.5396	0.0952	-95.8
119.48	2.6151E+5	4.5368	0.0978	-100.4
119.67	2.6201E+5	4.5382	0.0944	-95.0
119.87	2.6251E+5	4.5410	0.0977	-104.8
120.11	2.6301E+5	4.5368	0.0972	-99.8
120.32	2.6351E+5	4.5425	0.0979	-99.1
120.52	2.6401E+5	4.5410	0.0988	-106.8
120.72	2.6451E+5	4.5410	0.0965	-98.9
120.92	2.6501E+5	4.5382	0.0998	-102.5
121.14	2.6551E+5	4.5340	0.0969	-95.7
121.34	2.6601E+5	4.5396	Inf	-456.1
121.52	2.6651E+5	4.5382	0.0984	-101.9
121.72	2.6701E+5	4.5410	0.0997	+253.8
121.92	2.6751E+5	4.5425	Inf	+260.8
122.10	2.6801E+5	4.5396	0.0976	-94.3
122.34	2.6851E+5	4.5425	0.1013	-108.8
122.55	2.6901E+5	4.5382	Inf	-456.9
122.75	2.6951E+5	4.5481	0.0953	-100.5
122.97	2.7001E+5	4.5410	0.0973	-99.8
123.17	2.7051E+5	4.5425	0.0979	-97.3
123.35	2.7101E+5	4.5382	Inf	-99.7
123.55	2.7151E+5	4.5425	Inf	+264.6
123.75	2.7201E+5	4.5439	0.0954	-98.2
123.95	2.7251E+5	4.5410	0.0979	-94.5
124.15	2.7301E+5	4.5439	0.0967	-98.4
124.35	2.7351E+5	4.5439	0.0969	-101.0
124.55	2.7401E+5	4.5481	0.0968	-95.8
124.75	2.7451E+5	4.5382	0.0984	-105.2
124.98	2.7501E+5	4.5439	Inf	-99.0
125.18	2.7551E+5	4.5368	0.0995	-97.6
125.38	2.7601E+5	4.5368	0.0995	-96.1
125.56	2.7651E+5	4.5410	0.0984	+266.6
125.76	2.7701E+5	4.5396	0.0969	-104.4
125.98	2.7751E+5	4.5396	0.0983	-98.2
126.18	2.7801E+5	4.5410	0.0961	-99.2
126.41	2.7851E+5	4.5453	0.0979	-101.4
126.61	2.7901E+5	4.5410	0.0979	-99.6
126.79	2.7951E+5	4.5354	0.0991	-97.9
127.03	2.8001E+5	4.5453	0.1026	-95.2
127.24	2.8051E+5	4.5368	0.0996	-104.3
127.48	2.8101E+5	4.5368	0.0982	-99.0
127.67	2.8151E+5	4.5453	0.1067	-89.5
127.91	2.8201E+5	4.5453	0.0983	-93.8
128.11	2.8251E+5	4.5439	0.0998	-98.7
128.31	2.8301E+5	4.5425	0.0999	-101.4
128.49	2.8351E+5	4.5340	0.0997	+252.5
128.71	2.8401E+5	4.5467	0.0983	-105.2
128.91	2.8451E+5	4.5467	0.0989	-101.1
129.09	2.8501E+5	4.5439	0.1000	+253.4
129.29	2.8551E+5	4.5396	0.1005	-103.2
129.49	2.8601E+5	4.5382	0.0998	-100.5
129.67	2.8651E+5	4.5368	0.0998	-97.3
129.85	2.8701E+5	4.5382	0.1002	-96.3
130.04	2.8751E+5	4.5467	0.0986	-97.1
130.27	2.8801E+5	4.5439	0.0992	-104.0
130.45	2.8851E+5	4.5439	0.0992	-97.9
130.63	2.8901E+5	4.5326	0.1023	-102.8
130.87	2.8951E+5	4.5439	0.0995	-99.0
131.10	2.9001E+5	4.5439	0.1020	-104.1
131.30	2.9051E+5	4.5453	0.0993	-96.3
131.50	2.9101E+5	4.5439	0.1057	-95.9
131.70	2.9151E+5	4.5425	0.1032	-104.2
131.90	2.9201E+5	4.5439	0.1004	-102.2
132.10	2.9251E+5	4.5368	0.1027	-103.2
132.33	2.9301E+5	4.5453	0.1027	-100.6
132.53	2.9351E+5	4.5382	Inf	-95.4
132.73	2.9401E+5	4.5396	0.1031	-98.1
132.91	2.9451E+5	4.5453	0.1012	-101.9
133.15	2.9501E+5	4.5439	0.1019	-105.5
133.33	2.9551E+5	4.5453	0.1030	-98.3
133.53	2.9601E+5	4.5425	0.1021	-103.6
133.73	2.9651E+5	4.5439	0.1024	-100.5
133.91	2.9701E+5	4.5382	0.1018	-100.4
134.11	2.9751E+5	4.5368	0.1025	-105.0
134.29	2.9801E+5	4.5495	0.1014	-101.5
134.49	2.9851E+5	4.5509	0.1039	-103.0
134.69	2.9901E+5	4.5467	0.1001	-100.8
134.89	2.9951E+5	4.5509	0.1031	-102.9
135.09	3.0001E+5	4.5524	0.1044	-98.8
135.29	3.0051E+5	4.5453	0.1037	-103.8
135.49	3.0101E+5	4.5396	0.1034	-99.0
135.71	3.0151E+5	4.5467	0.1050	-96.9
135.92	3.0201E+5	4.5481	0.1026	-96.8
136.12	3.0251E+5	4.5382	0.1041	-101.4
136.36	3.0301E+5	4.5453	0.1039	-97.0
136.59	3.0351E+5	4.5368	0.1068	+266.7
136.81	3.0401E+5	4.5368	0.1039	-104.8
137.00	3.0451E+5	4.5439	0.1028	-103.6
137.20	3.0501E+5	4.5453	0.1046	-103.8
137.40	3.0551E+5	4.5439	0.1154	-97.2
137.60	3.0601E+5	4.5396	0.1059	-103.1
137.82	3.0651E+5	4.5368	0.1048	+265.6
138.02	3.0701E+5	4.5538	0.1041	+250.4
138.22	3.0751E+5	4.5481	0.1071	+263.2
138.42	3.0801E+5	4.5495	0.1076	-103.4
138.60	3.0851E+5	4.5410	0.1077	-104.0
138.78	3.0901E+5	4.5467	0.1044	-99.9
138.98	3.0951E+5	4.5524	0.1059	-98.4
139.18	3.1001E+5	4.5481	0.1038	-99.2
139.38	3.1051E+5	4.5467	0.1069	-110.1
139.58	3.1101E+5	4.5495	0.1184	-101.4
139.78	3.1151E+5	4.5481	0.1045	-99.2
139.98	3.1201E+5	4.5368	0.1111	-97.0
140.20	3.1251E+5	4.5453	0.1101	-105.9
140.43	3.1301E+5	4.5453	0.1062	-99.4
140.63	3.1351E+5	4.5439	0.1071	-101.9
140.83	3.1401E+5	4.5453	0.1063	-99.9
141.03	3.1451E+5	4.5439	0.1050	-98.8
141.23	3.1501E+5	4.5410	Inf	+246.5
141.41	3.1551E+5	4.5410	0.1099	+251.3
141.61	3.1601E+5	4.5467	0.1106	-99.4
141.79	3.1651E+5	4.5410	0.1088	-102.8
141.99	3.1701E+5	4.5439	0.1107	-100.0
142.19	3.1751E+5	4.5340	0.1118	-105.6
142.41	3.1801E+5	4.5509	0.1073	-105.4
142.63	3.1851E+5	4.5524	0.1078	+265.2
142.81	3.1901E+5	4.5396	0.1125	-103.2
143.04	3.1951E+5	4.5538	0.1107	-101.2
143.26	3.2001E+5	4.5368	0.1098	-102.8
143.46	3.2051E+5	4.5481	0.1108	-99.8
143.66	3.2101E+5	4.5453	0.1130	-105.5
143.86	3.2151E+5	4.5481	0.1132	-104.8
144.04	3.2201E+5	4.5382	0.1099	-102.3
144.26	3.2251E+5	4.5509	0.1122	-106.1
144.47	3.2301E+5	4.5552	0.1099	-101.4
144.67	3.2351E+5	4.5425	0.1138	-104.7
144.89	3.2401E+5	4.5495	0.1151	-100.7
145.09	3.2451E+5	4.5425	0.1099	-98.1
145.29	3.2501E+5	4.5410	0.1155	-105.9
145.49	3.2551E+5	4.5467	0.1133	-103.9
145.69	3.2601E+5	4.5396	0.1170	-104.3
145.90	3.2651E+5	4.5354	0.1106	-101.8
146.10	3.2701E+5	4.5467	0.1134	-95.6
146.32	3.2751E+5	4.5481	0.1111	-108.4
146.52	3.2801E+5	4.5453	0.1129	-105.2
146.72	3.2851E+5	4.5481	0.1150	-107.2
146.92	3.2901E+5	4.5368	0.1150	-103.2
147.12	3.2951E+5	4.5467	0.1147	-103.9
147.32	3.3001E+5	4.5453	0.1178	-105.9
147.53	3.3051E+5	4.5453	0.1169	-108.0
147.72	3.3101E+5	4.5481	0.1201	-108.0
147.91	3.3151E+5	4.5481	0.1159	-102.4
148.13	3.3201E+5	4.5495	0.1170	-103.6
148.33	3.3251E+5	4.5425	0.1139	-105.3
148.53	3.3301E+5	4.5495	0.1241	-100.1
148.73	3.3351E+5	4.5453	0.1251	-98.5
148.91	3.3401E+5	4.5524	0.1155	-105.1
149.11	3.3451E+5	4.5410	0.1188	-104.3
149.31	3.3501E+5	4.5467	0.1205	-103.4
149.51	3.3551E+5	4.5453	0.1199	-109.1
149.69	3.3601E+5	4.5481	0.1206	-103.4
149.88	3.3651E+5	4.5439	0.1227	-105.9
150.08	3.3701E+5	4.5396	0.1195	-112.0
150.29	3.3751E+5	4.5538	0.1236	-102.5
150.51	3.3801E+5	4.5481	0.1179	-109.3
150.71	3.3851E+5	4.5425	0.1232	-100.8
150.91	3.3901E+5	4.5396	0.1253	-104.9
151.12	3.3951E+5	4.5410	0.1241	-106.6
151.34	3.4001E+5	4.5467	0.1215	-104.3
151.54	3.4051E+5	4.5410	0.1205	-106.4
151.74	3.4101E+5	4.5524	0.1259	-107.7
151.94	3.4151E+5	4.5467	0.1268	-105.1
152.14	3.4201E+5	4.5410	0.1252	-102.9
152.34	3.4251E+5	4.5524	0.1250	-103.3
152.54	3.4301E+5	4.5453	0.1231	-102.2
152.75	3.4351E+5	4.5410	0.1261	-107.5
152.95	3.4401E+5	4.5453	0.1223	-106.7
153.15	3.4451E+5	4.5425	0.1347	-104.0
153.35	3.4501E+5	4.5453	0.1262	-109.0
153.55	3.4551E+5	4.5453	0.1229	-109.3
153.75	3.4601E+5	4.5382	0.1245	-111.3
153.97	3.4651E+5	4.5495	0.1267	-107.0
154.18	3.4701E+5	4.5453	0.1255	-109.1
154.38	3.4751E+5	4.5396	0.1350	-106.6
154.60	3.4801E+5	4.5396	0.1300	-102.7
154.80	3.4851E+5	4.5524	0.1401	-104.4
155.03	3.4901E+5	4.5439	0.1285	-105.9
155.23	3.4951E+5	4.5382	0.1323	-107.4
155.47	3.5001E+5	4.5425	0.1309	-101.9
155.68	3.5051E+5	4.5481	0.1353	-104.4
155.88	3.5101E+5	4.5354	0.1305	-108.8
156.10	3.5151E+5	4.5495	0.1328	-109.2
156.33	3.5201E+5	4.5396	0.1398	-103.8
156.55	3.5251E+5	4.5425	0.1346	-107.3
156.76	3.5301E+5	4.5467	0.1408	-105.6
156.96	3.5351E+5	4.5481	0.1397	-103.3
157.16	3.5401E+5	4.5425	0.1402	-105.3
157.34	3.5451E+5	4.5439	0.1455	-105.0
157.54	3.5501E+5	4.5467	0.1439	-103.9
157.74	3.5551E+5	4.5425	0.1298	-106.1
157.94	3.5601E+5	4.5382	0.1402	-101.9
158.16	3.5651E+5	4.5396	0.1468	-104.7
158.36	3.5701E+5	4.5481	0.1450	-105.1
158.57	3.5751E+5	4.5439	0.1488	-107.4
158.78	3.5801E+5	4.5425	0.1434	-109.2
158.97	3.5851E+5	4.5382	0.1515	-104.6
159.19	3.5901E+5	4.5396	0.1415	-105.1
159.39	3.5951E+5	4.5425	0.1471	-104.9
159.61	3.6001E+5	4.5453	0.1453	-108.0
159.81	3.6051E+5	4.5382	0.1589	-111.2
160.02	3.6101E+5	4.5410	0.1523	-107.6
160.25	3.6151E+5	4.5453	0.1421	-104.6
160.45	3.6201E+5	4.5410	0.1487	-101.3
160.66	3.6251E+5	4.5439	0.1507	-101.8
160.85	3.6301E+5	4.5354	0.1516	-101.7
161.05	3.6351E+5	4.5439	0.1511	-104.2
161.25	3.6401E+5	4.5425	0.1519	-107.5
161.42	3.6451E+5	4.5396	0.1594	-103.8
161.64	3.6501E+5	4.5396	0.1530	-103.6
161.84	3.6551E+5	4.5340	0.1577	-104.3
162.03	3.6601E+5	4.5368	0.1576	-103.5
162.23	3.6651E+5	4.5382	0.1574	-105.1
162.42	3.6701E+5	4.5354	0.1632	-105.9
162.62	3.6751E+5	4.5382	0.1593	-101.9
162.82	3.6801E+5	4.5425	0.1614	-108.0
163.05	3.6851E+5	4.5382	0.1620	-104.4
163.26	3.6901E+5	4.5410	0.1547	-108.9
163.50	3.6951E+5	4.5340	0.1598	-109.7
163.72	3.7001E+5	4.5410	0.1640	-102.5
163.93	3.7051E+5	4.5439	0.1651	-109.1
164.13	3.7101E+5	4.5382	0.1721	-106.7
164.35	3.7151E+5	4.5311	0.1655	-102.5
164.55	3.7201E+5	4.5311	0.1692	-105.2
164.75	3.7251E+5	4.5368	0.1699	-101.8
164.93	3.7301E+5	4.5297	0.1693	-101.9
165.11	3.7351E+5	4.5326	0.1687	-102.1
165.31	3.7401E+5	4.5255	0.1669	-100.1
165.51	3.7451E+5	4.5283	0.1773	-104.4
165.71	3.7501E+5	4.5311	0.1765	-100.6
165.89	3.7551E+5	4.5283	0.1708	-103.9
166.09	3.7601E+5	4.5340	0.1788	-104.0
166.29	3.7651E+5	4.5283	0.1780	-104.3
166.47	3.7701E+5	4.5311	0.1809	-105.1
166.68	3.7751E+5	4.5340	0.1845	-110.4
166.87	3.7801E+5	4.5326	0.1845	-105.9
167.06	3.7851E+5	4.5311	0.1910	-105.6
167.26	3.7901E+5	4.5241	0.1794	-106.1
167.46	3.7951E+5	4.5311	0.1917	-103.9
167.66	3.8001E+5	4.5297	0.1921	-105.5
167.84	3.8051E+5	4.5297	0.1762	-106.3
168.04	3.8101E+5	4.5297	0.1845	-103.7
168.24	3.8151E+5	4.5198	0.1976	-103.8
168.44	3.8201E+5	4.5297	0.1919	-106.2
168.64	3.8251E+5	4.5297	0.1825	-104.7
168.84	3.8301E+5	4.5311	0.1979	-102.2
169.04	3.8351E+5	4.5227	0.1952	-103.4
169.24	3.8401E+5	4.5198	0.1863	-108.3
169.44	3.8451E+5	4.5241	0.2017	-105.1
169.64	3.8501E+5	4.5212	0.1981	-104.6
169.84	3.8551E+5	4.5255	0.2005	-102.8
170.03	3.8601E+5	4.5227	0.2115	-99.7
170.24	3.8651E+5	4.5269	0.1969	-103.3
170.45	3.8701E+5	4.5255	0.2031	-103.0
170.65	3.8751E+5	4.5297	0.2063	-105.1
170.85	3.8801E+5	4.5283	0.2067	-102.0
171.03	3.8851E+5	4.5255	0.2132	-103.3
171.23	3.8901E+5	4.5227	0.2068	-101.9
171.43	3.8951E+5	4.5283	0.2155	-102.3
171.63	3.9001E+5	4.5283	0.2083	-101.1
171.83	3.9051E+5	4.5311	0.2169	-99.5
172.03	3.9101E+5	4.5255	0.2250	-102.0
172.23	3.9151E+5	4.5297	0.2345	-101.1
172.43	3.9201E+5	4.5241	0.2240	-101.0
172.63	3.9251E+5	4.5227	0.2309	-100.5
172.84	3.9301E+5	4.5241	0.2356	-99.8
173.04	3.9351E+5	4.5212	0.2350	-101.2
173.25	3.9401E+5	4.5283	0.2263	-103.5
173.44	3.9451E+5	4.5255	0.2372	-102.0
173.64	3.9501E+5	4.5255	0.2285	-102.7
173.84	3.9551E+5	4.5241	0.2349	-99.8
174.04	3.9601E+5	4.5283	0.2371	-104.4
174.24	3.9651E+5	4.5297	0.2305	-100.0
174.44	3.9701E+5	4.5241	0.2549	-101.3
174.64	3.9751E+5	4.5212	0.2434	-96.7
174.84	3.9801E+5	4.5241	0.2502	-99.9
175.04	3.9851E+5	4.5241	0.2597	-99.7
175.24	3.9901E+5	4.5227	0.2617	-99.6
175.44	3.9951E+5	4.5255	0.2672	-98.4
175.64	4.0001E+5	4.5227	0.2523	-97.8
175.84	4.0051E+5	4.5227	0.2697	-97.5
176.04	4.0101E+5	4.5227	0.2747	-100.0
176.24	4.0151E+5	4.5241	0.2699	-99.6
176.44	4.0201E+5	4.5241	0.2722	-95.1
176.64	4.0251E+5	4.5326	0.2803	-95.6
176.84	4.0301E+5	4.5241	0.2713	-96.0
177.04	4.0351E+5	4.5297	0.2840	-98.1
177.24	4.0401E+5	4.5255	0.2736	-95.6
177.44	4.0451E+5	4.5269	0.2831	-92.5
177.63	4.0501E+5	4.5269	0.2863	-94.3
177.83	4.0551E+5	4.5297	0.2923	-93.0
178.03	4.0601E+5	4.5255	0.2933	-95.0
178.23	4.0651E+5	4.5255	0.3019	-95.3
178.43	4.0701E+5	4.5212	0.2901	-96.2
178.63	4.0751E+5	4.5241	0.3021	-92.3
178.83	4.0801E+5	4.5241	0.3049	-91.7
179.03	4.0851E+5	4.5241	0.3157	-92.3
179.23	4.0901E+5	4.5241	0.3176	-90.1
179.41	4.0951E+5	4.5297	0.3274	-91.2
179.61	4.1001E+5	4.5297	0.3169	-90.1
179.81	4.1051E+5	4.5255	0.3157	-87.0
180.00	4.1101E+5	4.5241	0.3345	-90.5
180.20	4.1151E+5	4.5241	0.3348	-87.4
180.38	4.1201E+5	4.5269	0.3393	-92.4
180.58	4.1251E+5	4.5297	0.3436	-87.2
180.78	4.1301E+5	4.5311	0.3417	-90.8
180.96	4.1351E+5	4.5269	0.3475	-84.4
181.16	4.1401E+5	4.5184	0.3605	-88.1
181.36	4.1451E+5	4.5241	0.3542	-85.7
181.56	4.1501E+5	4.5283	0.3647	-85.5
181.76	4.1551E+5	4.5198	0.3859	-83.6
181.96	4.1601E+5	4.5326	0.3890	-83.3
182.16	4.1651E+5	4.5297	0.3759	-81.5
182.36	4.1701E+5	4.5255	0.3864	-81.2
182.56	4.1751E+5	4.5241	0.3969	-82.4
182.76	4.1801E+5	4.5241	0.3936	-78.9
182.96	4.1851E+5	4.5255	0.4061	-79.3
183.16	4.1901E+5	4.5354	0.4027	-78.0
183.36	4.1951E+5	4.5311	0.4159	-76.2
183.56	4.2001E+5	4.5241	0.4078	-76.7
183.76	4.2051E+5	4.5283	0.3991	-74.8
183.96	4.2101E+5	4.5326	0.4210	-73.5
184.16	4.2151E+5	4.5283	0.4220	-75.8
184.34	4.2201E+5	4.5311	0.4257	-75.1
184.54	4.2251E+5	4.5283	0.4287	-71.2
184.74	4.2301E+5	4.5297	0.4217	-70.1
184.94	4.2351E+5	4.5283	0.4274	-69.5
185.13	4.2401E+5	4.5255	0.4583	-67.3
185.34	4.2451E+5	4.5241	0.4559	-66.1
185.53	4.2501E+5	4.5255	0.4565	-70.6
185.72	4.2551E+5	4.5311	0.4434	-68.0
185.92	4.2601E+5	4.5297	0.4652	-65.0
186.12	4.2651E+5	4.5311	0.4559	-67.1
186.31	4.2701E+5	4.5269	0.4704	-66.1
186.52	4.2751E+5	4.5269	0.4636	-60.0
186.72	4.2801E+5	4.5311	0.4697	-60.3
186.91	4.2851E+5	4.5297	0.4739	-59.9
187.12	4.2901E+5	4.5340	0.4790	-57.0
187.31	4.2951E+5	4.5283	0.4762	-56.5
187.51	4.3001E+5	4.5297	0.4810	-56.1
187.71	4.3051E+5	4.5368	0.4839	-56.7
187.91	4.3101E+5	4.5297	0.4796	-52.1
188.11	4.3151E+5	4.5297	0.4950	-52.5
188.31	4.3201E+5	4.5340	0.4910	-50.9
188.51	4.3251E+5	4.5255	0.4855	-49.4
188.71	4.3301E+5	4.5311	0.4839	-47.8
188.91	4.3351E+5	4.5269	0.4883	-46.4
189.11	4.3401E+5	4.5311	0.4943	-44.6
189.31	4.3451E+5	4.5354	0.4906	-42.9
189.51	4.3501E+5	4.5311	0.4987	-43.9
189.71	4.3551E+5	4.5212	0.4943	-41.7
189.91	4.3601E+5	4.5297	0.4825	-37.2
190.11	4.3651E+5	4.5311	0.4694	-40.0
190.31	4.3701E+5	4.5311	0.4711	-34.3
190.51	4.3751E+5	4.5311	0.4798	-33.4
190.71	4.3801E+5	4.5311	0.4831	-34.7
190.91	4.3851E+5	4.5326	0.4814	-33.6
191.11	4.3901E+5	4.5354	0.4780	-32.8
191.31	4.3951E+5	4.5354	0.4709	-33.9
191.50	4.4001E+5	4.5297	0.4678	-27.3
191.71	4.4051E+5	4.5255	0.4632	-28.4
191.91	4.4101E+5	4.5297	0.4460	-26.7
192.10	4.4151E+5	4.5326	0.4545	-27.3
192.30	4.4201E+5	4.5382	0.4407	-25.9
192.50	4.4251E+5	4.5269	0.4464	-24.6
192.70	4.4301E+5	4.5297	0.4315	-20.3
192.90	4.4351E+5	4.5297	0.4388	-22.2
193.10	4.4401E+5	4.5340	0.4334	-19.9
193.30	4.4451E+5	4.5255	0.4535	-18.9
193.50	4.4501E+5	4.5340	0.4178	-21.0
193.70	4.4551E+5	4.5326	0.4203	-18.1
193.90	4.4601E+5	4.5340	0.4198	-15.6
194.10	4.4651E+5	4.5311	0.4172	-20.4
194.30	4.4701E+5	4.5368	0.4125	-14.3
194.50	4.4751E+5	4.5311	0.4033	-15.0
194.70	4.4801E+5	4.5297	0.4003	-14.8
194.90	4.4851E+5	4.5340	0.4036	-14.0
195.10	4.4901E+5	4.5368	0.3844	-13.0
195.30	4.4951E+5	4.5340	0.3872	-12.0
195.50	4.5001E+5	4.5326	0.3828	-9.8
195.70	4.5051E+5	4.5340	0.3681	-7.3
195.90	4.5101E+5	4.5311	0.3684	-11.0
196.08	4.5151E+5	4.5340	0.3639	-9.1
196.28	4.5201E+5	4.5340	0.3688	-7.2
196.48	4.5251E+5	4.5269	0.3537	-7.4
196.68	4.5301E+5	4.5340	0.3453	-6.9
196.88	4.5351E+5	4.5354	0.3577	-3.9
197.08	4.5401E+5	4.5326	0.3468	-3.8
197.28	4.5451E+5	4.5340	0.3496	-5.5
197.47	4.5501E+5	4.5340	0.3401	-3.8
197.68	4.5551E+5	4.5354	0.3278	-0.6
197.87	4.5601E+5	4.5368	0.3203	-3.4
198.07	4.5651E+5	4.5354	0.3278	-2.0
198.27	4.5701E+5	4.5354	0.3108	-1.3
198.47	4.5751E+5	4.5311	0.3169	-0.8
198.67	4.5801E+5	4.5396	0.3073	-1.1
198.87	4.5851E+5	4.5326	0.3203	+0.4
199.07	4.5901E+5	4.5297	0.3131	-2.1
199.27	4.5951E+5	4.5326	0.3026	+1.4
199.47	4.6001E+5	4.5340	0.3073	-1.3
199.67	4.6051E+5	4.5340	0.3005	+0.4
199.87	4.6101E+5	4.5396	0.2963	+1.1
200.07	4.6151E+5	4.5269	0.3070	+4.2
200.27	4.6201E+5	4.5340	0.2750	+0.7
200.47	4.6251E+5	4.5354	0.2830	+0.0
200.67	4.6301E+5	4.5340	0.2722	+2.5
200.87	4.6351E+5	4.5354	0.2813	+2.7
201.07	4.6401E+5	4.5382	0.2698	+2.1
201.27	4.6451E+5	4.5368	0.2791	+5.2
201.47	4.6501E+5	4.5410	0.2665	+1.3
201.68	4.6551E+5	4.5340	0.2648	+3.2
201.90	4.6601E+5	4.5439	0.2633	+4.5
202.12	4.6651E+5	4.5340	0.2534	+2.2
202.35	4.6701E+5	4.5340	0.2581	+8.6
202.55	4.6751E+5	4.5340	0.2539	+4.8
202.75	4.6801E+5	4.5425	0.2526	+8.1
202.97	4.6851E+5	4.5382	0.2531	+4.6
203.16	4.6901E+5	4.5382	0.2493	+5.3
203.36	4.6951E+5	4.5382	0.2277	+4.4
203.56	4.7001E+5	4.5354	0.2335	+7.3
203.76	4.7051E+5	4.5340	0.2389	+5.8
203.96	4.7101E+5	4.5311	0.2333	+9.4
204.16	4.7151E+5	4.5340	0.2347	+6.9
204.36	4.7201E+5	4.5354	0.2340	+10.9
204.56	4.7251E+5	4.5354	0.2275	+6.5
204.76	4.7301E+5	4.5467	0.2216	+9.8
204.99	4.7351E+5	4.5410	0.2268	+13.0
205.19	4.7401E+5	4.5354	0.2242	+10.6
205.41	4.7451E+5	4.5340	0.2145	+9.4
205.61	4.7501E+5	4.5396	0.2257	+10.5
205.81	4.7551E+5	4.5382	0.2185	+10.8
206.01	4.7601E+5	4.5311	0.2014	+7.2
206.21	4.7651E+5	4.5425	0.2177	+9.3
206.42	4.7701E+5	4.5382	0.2181	+13.2
206.62	4.7751E+5	4.5396	0.2111	+7.3
206.84	4.7801E+5	4.5340	0.2080	+11.8
207.04	4.7851E+5	4.5453	0.2064	+9.4
207.25	4.7901E+5	4.5340	0.2054	+11.1
207.49	4.7951E+5	4.5396	0.1958	+10.4
207.69	4.8001E+5	4.5396	0.1920	+12.1
207.89	4.8051E+5	4.5396	0.1940	+5.3
208.09	4.8101E+5	4.5382	0.1941	+8.7
208.27	4.8151E+5	4.5396	0.1913	+9.4
208.47	4.8201E+5	4.5425	0.1909	+8.1
208.67	4.8251E+5	4.5410	0.1887	+12.5
208.87	4.8301E+5	4.5340	0.1978	+12.7
209.09	4.8351E+5	4.5354	0.1890	+14.3
209.28	4.8401E+5	4.5453	0.1901	+12.7
209.48	4.8451E+5	4.5297	0.1853	+11.0
209.70	4.8501E+5	4.5340	0.1772	+9.4
209.90	4.8551E+5	4.5354	0.1814	+11.0
210.10	4.8601E+5	4.5354	0.1754	+15.3
210.30	4.8651E+5	4.5311	0.1876	+13.3
210.50	4.8701E+5	4.5368	0.1864	+11.7
210.70	4.8751E+5	4.5382	0.1897	+13.6
210.90	4.8801E+5	4.5326	0.1739	+13.4
211.10	4.8851E+5	4.5382	0.1628	+15.9
211.30	4.8901E+5	4.5396	0.1679	+14.7
211.50	4.8951E+5	4.5396	0.1789	+13.9
211.69	4.9001E+5	4.5311	0.1624	+13.8
211.90	4.9051E+5	4.5354	0.1563	+11.7
212.09	4.9101E+5	4.5311	0.1710	+13.5
212.29	4.9151E+5	4.5382	0.1695	+16.6
212.50	4.9201E+5	4.5368	0.1647	+13.6
212.69	4.9251E+5	4.5311	0.1676	+10.5
212.89	4.9301E+5	4.5311	0.1478	+8.9
213.09	4.9351E+5	4.5368	0.1638	+14.3
213.29	4.9401E+5	4.5396	0.1542	+13.3
213.49	4.9451E+5	4.5354	0.1663	+5.6
213.69	4.9501E+5	4.5396	0.1500	+8.0
213.89	4.9551E+5	4.5326	0.1566	+16.2
214.09	4.9601E+5	4.5326	0.1606	+14.2
214.29	4.9651E+5	4.5368	0.1606	+11.1
214.47	4.9701E+5	4.5410	0.1376	+15.3
214.69	4.9751E+5	4.5382	0.1562	+9.7
214.91	4.9801E+5	4.5368	0.1557	+15.9
215.09	4.9851E+5	4.5368	0.1619	+9.0
215.29	4.9901E+5	4.5382	0.1477	+15.4
215.49	4.9951E+5	4.5396	0.1386	+11.5
215.69	5.0001E+5	4.5354	0.1525	+14.4
215.89	5.0051E+5	4.5368	0.1483	+9.2
216.09	5.0101E+5	4.5368	0.1411	+12.5
216.29	5.0151E+5	4.5326	0.1450	+16.0
216.50	5.0201E+5	4.5396	0.1438	+13.9
216.70	5.0251E+5	4.5382	0.1418	+13.9
216.90	5.0301E+5	4.5311	0.1410	+17.3
217.08	5.0351E+5	4.5425	0.1389	+10.8
217.30	5.0401E+5	4.5269	0.1530	+6.9
217.52	5.0451E+5	4.5382	0.1413	+13.5
217.72	5.0501E+5	4.5326	0.1409	+14.1
217.90	5.0551E+5	4.5368	0.1362	+14.5
218.10	5.0601E+5	4.5382	0.1303	+13.1
218.30	5.0651E+5	4.5396	0.1303	+11.1
218.48	5.0701E+5	4.5396	0.1319	+18.9
218.68	5.0751E+5	4.5368	0.1310	+12.7
218.86	5.0801E+5	4.5382	0.1398	+12.0
219.06	5.0851E+5	4.5439	0.1474	+13.5
219.28	5.0901E+5	4.5425	0.1373	+13.4
219.48	5.0951E+5	4.5396	0.1372	+11.0
219.69	5.1001E+5	4.5326	0.1289	+12.6
219.90	5.1051E+5	4.5410	0.1368	+10.8
220.11	5.1101E+5	4.5410	0.1266	+15.0
220.31	5.1151E+5	4.5410	0.1200	+13.8
220.51	5.1201E+5	4.5368	0.1236	+19.7
220.73	5.1251E+5	4.5368	0.1338	+12.0
220.93	5.1301E+5	4.5396	0.1333	+9.6
221.12	5.1351E+5	4.5368	0.1221	+13.9
221.32	5.1401E+5	4.5297	0.1263	+16.9
221.53	5.1451E+5	4.5396	0.1261	+17.7
221.71	5.1501E+5	4.5425	0.1360	+12.1
221.92	5.1551E+5	4.5368	0.1282	+9.4
222.14	5.1601E+5	4.5382	0.1306	+14.1
222.34	5.1651E+5	4.5326	0.1231	+11.0
222.54	5.1701E+5	4.5340	0.1240	+14.1
222.74	5.1751E+5	4.5425	0.1258	+21.1
222.96	5.1801E+5	4.5354	0.1250	+17.8
223.17	5.1851E+5	4.5396	0.1292	+12.7
223.37	5.1901E+5	4.5425	0.1222	+15.4
223.60	5.1951E+5	4.5382	0.1143	+14.9
223.84	5.2001E+5	4.5382	0.1156	+9.8
224.04	5.2051E+5	4.5396	0.1109	+10.6
224.24	5.2101E+5	4.5297	0.1240	+12.3
224.45	5.2151E+5	4.5340	0.1145	+14.5
224.65	5.2201E+5	4.5354	0.1189	+11.1
224.85	5.2251E+5	4.5354	0.1118	+15.0
225.05	5.2301E+5	4.5340	0.1266	+9.6
225.25	5.2351E+5	4.5396	0.1162	+14.6
225.45	5.2401E+5	4.5425	0.1171	+12.9
225.67	5.2451E+5	4.5439	0.1166	+16.1
225.87	5.2501E+5	4.5368	0.1135	+10.3
226.10	5.2551E+5	4.5340	0.1152	+9.6
226.30	5.2601E+5	4.5311	0.1089	+13.1
226.50	5.2651E+5	4.5396	0.1166	+11.4
226.70	5.2701E+5	4.5453	0.1146	+19.0
226.91	5.2751E+5	4.5340	0.1055	+12.3
227.15	5.2801E+5	4.5354	0.1253	+18.3
227.35	5.2851E+5	4.5396	0.1053	+12.2
227.54	5.2901E+5	4.5396	0.1143	+14.1
227.75	5.2951E+5	4.5396	0.1002	+12.6
227.94	5.3001E+5	4.5410	0.1105	+9.3
228.16	5.3051E+5	4.5396	0.1099	+11.5
228.36	5.3101E+5	4.5368	0.1076	+14.8
228.56	5.3151E+5	4.5368	0.1153	+14.4
228.76	5.3201E+5	4.5354	0.1190	-0.1
228.96	5.3251E+5	4.5382	0.1108	+9.2
229.16	5.3301E+5	4.5453	0.1100	+13.4
229.37	5.3351E+5	4.5382	0.1076	+15.7
229.59	5.3401E+5	4.5439	0.0961	+12.0
229.81	5.3451E+5	4.5382	0.1043	+16.9
230.02	5.3501E+5	4.5326	0.1094	+10.7
230.22	5.3551E+5	4.5410	0.1189	+7.4
230.44	5.3601E+5	4.5382	0.1114	+15.3
230.67	5.3651E+5	4.5382	0.1057	+13.5
230.87	5.3701E+5	4.5410	0.1025	+11.0
231.09	5.3751E+5	4.5368	0.0961	+15.0
231.30	5.3801E+5	4.5425	0.0992	+11.4
231.52	5.3851E+5	4.5410	0.1062	+15.8
231.72	5.3901E+5	4.5453	0.0874	+11.1
231.92	5.3951E+5	4.5368	0.1089	+11.4
232.14	5.4001E+5	4.5382	0.0984	+11.0
232.34	5.4051E+5	4.5396	0.0997	+10.8
232.52	5.4101E+5	4.5410	0.0986	+5.6
232.72	5.4151E+5	4.5396	0.1011	+13.1
232.95	5.4201E+5	4.5396	0.1105	+11.0
233.15	5.4251E+5	4.5467	0.0871	+9.8
233.38	5.4301E+5	4.5396	0.0961	+4.9
233.62	5.4351E+5	4.5396	0.0961	+13.1
233.80	5.4401E+5	4.5396	0.0970	+7.3
234.00	5.4451E+5	4.5425	0.0957	+13.2
234.22	5.4501E+5	4.5439	0.0952	+16.7
234.41	5.4551E+5	4.5340	0.1068	+10.5
234.63	5.4601E+5	4.5453	0.0989	+15.2
234.85	5.4651E+5	4.5396	0.0936	+12.1
235.06	5.4701E+5	4.5354	0.1031	+8.6
235.26	5.4751E+5	4.5354	0.1031	+7.2
235.45	5.4801E+5	4.5396	0.0922	+9.8
235.64	5.4851E+5	4.5311	0.0966	+13.1
235.84	5.4901E+5	4.5439	0.0846	+11.9
236.06	5.4951E+5	4.5368	0.1046	+10.9
236.28	5.5001E+5	4.5326	Inf	-342.3
236.46	5.5051E+5	4.5368	0.1024	+19.5
236.66	5.5101E+5	4.5382	0.0934	+9.0
236.86	5.5151E+5	4.5467	0.0945	+13.7
237.09	5.5201E+5	4.5354	0.0968	+16.2
237.31	5.5251E+5	4.5354	0.0900	+6.0
237.51	5.5301E+5	4.5354	0.0951	+10.1
237.71	5.5351E+5	4.5396	0.0926	+15.6
237.91	5.5401E+5	4.5354	0.0949	+18.8
238.11	5.5451E+5	4.5382	0.0820	+9.3
238.31	5.5501E+5	4.5354	0.0931	+18.3
238.50	5.5551E+5	4.5382	0.0968	+12.0
238.71	5.5601E+5	4.5382	0.0909	+9.0
238.90	5.5651E+5	4.5425	0.0831	+12.5
239.12	5.5701E+5	4.5354	0.0847	+10.0
239.34	5.5751E+5	4.5396	0.0837	+9.7
239.54	5.5801E+5	4.5382	0.0862	+9.6
239.74	5.5851E+5	4.5297	0.0931	+6.3
239.94	5.5901E+5	4.5340	0.0905	+12.4
240.14	5.5951E+5	4.5354	0.0939	+17.5
240.34	5.6001E+5	4.5425	0.0903	+8.4
240.55	5.6051E+5	4.5382	0.0906	+14.5
240.75	5.6101E+5	4.5382	0.0861	+13.5
240.93	5.6151E+5	4.5396	0.0916	+13.0
241.13	5.6201E+5	4.5354	0.0920	+15.5
241.32	5.6251E+5	4.5340	0.0876	+12.1
241.52	5.6301E+5	4.5368	0.0850	+12.4
241.72	5.6351E+5	4.5453	0.0855	+14.1
241.91	5.6401E+5	4.5382	0.0813	+12.5
242.15	5.6451E+5	4.5382	0.0846	+7.0
242.35	5.6501E+5	4.5368	0.0895	+13.5
242.55	5.6551E+5	4.5425	0.0868	+16.2
242.78	5.6601E+5	4.5396	0.1021	+1.7
243.00	5.6651E+5	4.5368	0.0886	+14.6
243.20	5.6701E+5	4.5382	0.0837	+8.7
243.40	5.6751E+5	4.5326	0.0831	+10.4
243.58	5.6801E+5	4.5368	0.0798	+14.0
243.78	5.6851E+5	4.5439	0.0836	+5.3
244.01	5.6901E+5	4.5368	0.0786	+11.7
244.21	5.6951E+5	4.5297	0.0832	+13.0
244.41	5.7001E+5	4.5410	0.0839	+10.4
244.61	5.7051E+5	4.5354	0.0867	+12.9
244.84	5.7101E+5	4.5311	0.0935	+17.0
245.04	5.7151E+5	4.5340	0.0947	+18.4
245.24	5.7201E+5	4.5368	0.0913	+3.0
245.44	5.7251E+5	4.5396	0.0857	+13.2
245.64	5.7301E+5	4.5354	0.0862	+16.6
245.82	5.7351E+5	4.5368	0.0824	+8.3
246.02	5.7401E+5	4.5396	0.0777	+11.2
246.22	5.7451E+5	4.5326	0.0843	+15.5
246.42	5.7501E+5	4.5368	0.0801	+13.7
246.61	5.7551E+5	4.5368	0.0812	+10.1
246.79	5.7601E+5	4.5354	0.0842	+13.6
246.99	5.7651E+5	4.5354	0.0780	+8.4
247.19	5.7701E+5	4.5340	0.0827	+6.3
247.39	5.7751E+5	4.5382	0.0826	+8.4
247.57	5.7801E+5	4.5382	0.0802	+5.5
247.77	5.7851E+5	4.5340	0.0842	+13.2
247.97	5.7901E+5	4.5326	0.0785	+7.7
248.17	5.7951E+5	4.5354	0.0819	+18.0
248.37	5.8001E+5	4.5382	0.0747	+12.4
248.55	5.8051E+5	4.5410	0.0710	+10.7
248.77	5.8101E+5	4.5340	0.0748	+8.3
248.98	5.8151E+5	4.5382	0.0870	+11.3
249.18	5.8201E+5	4.5283	0.0864	+7.7
249.38	5.8251E+5	4.5368	0.0801	+6.0
249.58	5.8301E+5	4.5368	0.0802	+9.0
249.76	5.8351E+5	4.5326	0.0790	+11.4
249.97	5.8401E+5	4.5410	0.0784	+12.1
250.16	5.8451E+5	4.5340	0.0811	+11.0
250.38	5.8501E+5	4.5340	0.0760	+10.3
250.58	5.8551E+5	4.5382	0.0772	+10.4
250.78	5.8601E+5	4.5382	Inf	+365.1
250.96	5.8651E+5	4.5340	0.0752	+3.5
251.16	5.8701E+5	4.5396	0.0822	+9.7
251.36	5.8751E+5	4.5340	0.0763	+11.7
251.56	5.8801E+5	4.5382	0.0761	+5.5
251.72	5.8851E+5	4.5368	Inf	-353.0
251.91	5.8901E+5	4.5311	0.0838	+9.3
252.11	5.8951E+5	4.5340	Inf	+361.7
252.29	5.9001E+5	4.5425	0.0879	+18.6
252.51	5.9051E+5	4.5368	0.0758	+6.9
252.72	5.9101E+5	4.5340	0.0821	+2.1
252.92	5.9151E+5	4.5354	0.0749	+6.6
253.12	5.9201E+5	4.5340	0.0765	+5.2
253.31	5.9251E+5	4.5410	0.0759	+3.5
253.51	5.9301E+5	4.5354	0.0775	+12.1
253.72	5.9351E+5	4.5354	0.0823	-1.4
253.92	5.9401E+5	4.5382	0.0703	+8.1
254.12	5.9451E+5	4.5354	Inf	-345.5
254.30	5.9501E+5	4.5326	0.0733	+7.4
254.49	5.9551E+5	4.5354	0.0755	+0.3
254.69	5.9601E+5	4.5410	0.0813	+16.2
254.90	5.9651E+5	4.5326	0.0736	+12.1
255.12	5.9701E+5	4.5368	0.0823	-2.0
255.32	5.9751E+5	4.5340	0.0677	+7.6
255.52	5.9801E+5	4.5382	0.0832	+4.5
255.70	5.9851E+5	4.5382	0.0643	+10.8
255.87	5.9901E+5	4.5297	0.0702	+7.9
256.05	5.9951E+5	4.5382	0.0770	+7.7
256.25	6.0001E+5	4.5326	0.0699	+8.6
256.43	6.0051E+5	4.5354	0.0730	+16.9
256.62	6.0101E+5	4.5283	0.0681	+7.7
256.80	6.0151E+5	4.5382	0.0811	-4.2
256.96	6.0201E+5	4.5311	0.0790	+9.0
257.17	6.0251E+5	4.5269	0.0683	+8.0
257.36	6.0301E+5	4.5297	0.0711	+16.5
257.55	6.0351E+5	4.5354	0.0818	+19.0
257.73	6.0401E+5	4.5326	0.0691	+11.5
257.90	6.0451E+5	4.5354	0.0686	+8.5
258.06	6.0501E+5	4.5297	0.0765	+13.4
258.25	6.0551E+5	4.5326	0.0710	+9.9
258.43	6.0601E+5	4.5326	0.0763	+2.1
258.61	6.0651E+5	4.5311	0.0699	+10.0
258.81	6.0701E+5	4.5396	0.0692	+10.5
258.98	6.0751E+5	4.5354	0.0696	+12.5
259.16	6.0801E+5	4.5283	0.0649	-345.3
259.36	6.0851E+5	4.5368	0.0733	+4.8
259.56	6.0901E+5	4.5269	Inf	+364.4
259.74	6.0951E+5	4.5340	0.0683	+5.2
259.93	6.1001E+5	4.5354	0.0659	+7.8
260.13	6.1051E+5	4.5340	0.0711	+6.5
260.33	6.1101E+5	4.5283	0.0733	+8.2
260.53	6.1151E+5	4.5340	0.0747	+11.9
260.73	6.1201E+5	4.5340	0.0691	+7.9
260.91	6.1251E+5	4.5283	0.0726	+7.9
261.11	6.1301E+5	4.5354	0.0668	+2.7
261.31	6.1351E+5	4.5340	0.0698	+4.9
261.50	6.1401E+5	4.5326	Inf	-349.7
261.69	6.1451E+5	4.5326	0.0733	+9.7
261.87	6.1501E+5	4.5354	0.0831	+12.8
262.07	6.1551E+5	4.5311	0.0643	+8.6
262.27	6.1601E+5	4.5297	0.0718	+5.2
262.47	6.1651E+5	4.5297	0.0779	+18.0
262.67	6.1701E+5	4.5354	0.0775	+17.0
262.84	6.1751E+5	4.5340	0.0649	+6.7
263.04	6.1801E+5	4.5340	0.0696	+12.6
263.24	6.1851E+5	4.5326	0.0689	+12.9
263.42	6.1901E+5	4.5368	0.0719	+7.0
263.60	6.1951E+5	4.5297	0.0686	+1.8
263.80	6.2001E+5	4.5297	0.0682	+7.9
264.00	6.2051E+5	4.5354	0.0662	-351.0
264.20	6.2101E+5	4.5311	0.0804	+16.8
264.40	6.2151E+5	4.5340	0.0714	+7.4
264.58	6.2201E+5	4.5326	0.0625	-345.7
264.78	6.2251E+5	4.5311	0.0776	+16.1
264.98	6.2301E+5	4.5326	0.0702	+9.4
265.18	6.2351E+5	4.5269	0.0685	+15.2
265.37	6.2401E+5	4.5255	0.0735	-1.1
265.56	6.2451E+5	4.5297	0.0771	+7.0
265.76	6.2501E+5	4.5311	0.0743	+2.0
265.96	6.2551E+5	4.5297	Inf	+363.2
266.15	6.2601E+5	4.5297	0.0697	+4.2
266.33	6.2651E+5	4.5326	0.0771	+8.4
266.53	6.2701E+5	4.5326	0.0656	+8.6
266.73	6.2751E+5	4.5311	0.0661	+9.6
266.93	6.2801E+5	4.5368	0.0775	+12.2
267.11	6.2851E+5	4.5382	0.0599	-340.4
267.31	6.2901E+5	4.5283	0.0679	+11.4
267.51	6.2951E+5	4.5368	0.0612	-341.3
267.71	6.3001E+5	4.5326	Inf	-350.0
267.88	6.3051E+5	4.5297	0.0736	+16.9
268.08	6.3101E+5	4.5269	0.0740	+7.5
268.26	6.3151E+5	4.5311	0.0643	+15.6
268.46	6.3201E+5	4.5297	0.0677	+9.7
268.64	6.3251E+5	4.5311	Inf	+360.4
268.82	6.3301E+5	4.5283	0.0686	+6.3
269.02	6.3351E+5	4.5326	Inf	+12.6
269.21	6.3401E+5	4.5340	Inf	-350.2
269.37	6.3451E+5	4.5283	0.0595	-340.0
269.57	6.3501E+5	4.5326	0.0668	+8.3
269.77	6.3551E+5	4.5340	Inf	+370.0
269.95	6.3601E+5	4.5311	0.0630	+7.6
270.14	6.3651E+5	4.5297	0.0640	-1.0
270.32	6.3701E+5	4.5227	Inf	+368.0
270.50	6.3751E+5	4.5311	0.0643	+7.0
270.70	6.3801E+5	4.5326	0.0717	+3.9
270.89	6.3851E+5	4.5255	0.0636	+12.4
271.09	6.3901E+5	4.5354	Inf	+361.5
271.27	6.3951E+5	4.5311	Inf	+5.1
271.45	6.4001E+5	4.5283	0.0574	-339.3
271.64	6.4051E+5	4.5227	0.0726	+6.3
271.83	6.4101E+5	4.5354	Inf	+6.7
272.02	6.4151E+5	4.5326	0.0629	+5.9
272.20	6.4201E+5	4.5354	0.0664	+0.8
272.40	6.4251E+5	4.5326	0.0720	+0.7
272.60	6.4301E+5	4.5227	0.0584	-351.3
272.80	6.4351E+5	4.5269	0.0629	+10.1
272.98	6.4401E+5	4.5311	Inf	+0.8
273.17	6.4451E+5	4.5283	0.0619	-351.4
273.35	6.4501E+5	4.5297	0.0668	+1.8
273.55	6.4551E+5	4.5283	0.0615	+0.4
273.73	6.4601E+5	4.5354	0.0725	+19.2
273.93	6.4651E+5	4.5297	0.0650	+7.9
274.13	6.4701E+5	4.5255	0.0556	-339.4
274.31	6.4751E+5	4.5354	0.0627	+8.8
274.51	6.4801E+5	4.5297	Inf	+8.5
274.70	6.4851E+5	4.5269	0.0606	+0.7
274.89	6.4901E+5	4.5269	0.0613	+1.5
275.06	6.4951E+5	4.5255	Inf	+4.8
275.24	6.5001E+5	4.5283	0.0599	+1.1
275.44	6.5051E+5	4.5241	0.0622	+10.5
275.63	6.5101E+5	4.5340	0.0677	+14.2
275.83	6.5151E+5	4.5198	0.0727	-2.4
276.02	6.5201E+5	4.5283	Inf	+12.0
276.19	6.5251E+5	4.5241	Inf	+364.9
276.37	6.5301E+5	4.5283	0.0692	-3.0
276.57	6.5351E+5	4.5241	0.0625	-2.0
276.77	6.5401E+5	4.5227	0.0592	+7.2
276.96	6.5451E+5	4.5283	0.0621	+4.5
277.16	6.5501E+5	4.5269	0.0597	+6.6
277.36	6.5551E+5	4.5212	0.0704	+7.9
277.54	6.5601E+5	4.5255	0.0612	+6.2
277.74	6.5651E+5	4.5212	0.0594	-3.4
277.94	6.5701E+5	4.5227	0.0568	-342.0
278.12	6.5751E+5	4.5255	0.0609	+2.4
278.32	6.5801E+5	4.5255	Inf	+371.7
278.50	6.5851E+5	4.5297	0.0609	+12.1
278.69	6.5901E+5	4.5311	0.0681	-1.0
278.87	6.5951E+5	4.5227	0.0580	+6.0
279.07	6.6001E+5	4.5241	0.0642	-3.4
279.27	6.6051E+5	4.5255	0.0686	+16.8
279.45	6.6101E+5	4.5283	0.0571	+353.3
279.65	6.6151E+5	4.5283	0.0579	+1.4
279.85	6.6201E+5	4.5326	0.0595	-352.8
280.04	6.6251E+5	4.5283	0.0586	+2.3
280.23	6.6301E+5	4.5311	Inf	+12.2
280.42	6.6351E+5	4.5269	0.0590	+3.8
280.60	6.6401E+5	4.5255	0.0578	+6.0
280.80	6.6451E+5	4.5269	Inf	+8.0
280.98	6.6501E+5	4.5326	0.0577	+12.0
281.15	6.6551E+5	4.5283	0.0599	-2.3
281.35	6.6601E+5	4.5297	0.0566	-352.7
281.55	6.6651E+5	4.5269	0.0581	-354.0
281.73	6.6701E+5	4.5227	0.0547	-344.8
281.93	6.6751E+5	4.5283	Inf	+364.0
282.11	6.6801E+5	4.5269	Inf	+361.1
282.28	6.6851E+5	4.5326	0.0610	+5.9
282.48	6.6901E+5	4.5184	Inf	+357.2
282.66	6.6951E+5	4.5283	0.0601	+11.5
282.84	6.7001E+5	4.5283	0.0570	+3.0
283.04	6.7051E+5	4.5311	0.0578	+9.7
283.24	6.7101E+5	4.5198	0.0561	-342.3
283.43	6.7151E+5	4.5241	Inf	-347.7
283.61	6.7201E+5	4.5255	Inf	+375.8
283.79	6.7251E+5	4.5283	0.0641	+8.6
283.96	6.7301E+5	4.5269	Inf	-5.4
284.14	6.7351E+5	4.5297	0.0627	-3.2
284.34	6.7401E+5	4.5198	0.0577	-355.8
284.52	6.7451E+5	4.5269	0.0585	+14.7
284.71	6.7501E+5	4.5297	0.0566	+9.2
284.91	6.7551E+5	4.5340	0.0582	+10.7
285.09	6.7601E+5	4.5269	0.0630	-6.7
285.29	6.7651E+5	4.5283	0.0592	+7.0
285.49	6.7701E+5	4.5269	0.0583	+9.4
285.67	6.7751E+5	4.5283	0.0571	-354.0
285.87	6.7801E+5	4.5241	0.0575	-358.2
286.07	6.7851E+5	4.5297	0.0594	+8.7
286.25	6.7901E+5	4.5297	Inf	+8.2
286.44	6.7951E+5	4.5326	0.0667	+19.0
286.64	6.8001E+5	4.5283	0.0534	-346.1
286.82	6.8051E+5	4.5340	0.0594	+3.1
287.02	6.8101E+5	4.5255	Inf	-358.2
287.20	6.8151E+5	4.5311	0.0553	+7.2
287.38	6.8201E+5	4.5283	0.0560	+3.2
287.58	6.8251E+5	4.5269	0.0552	+355.8
287.78	6.8301E+5	4.5184	Inf	+5.5
287.95	6.8351E+5	4.5269	Inf	+16.9
288.13	6.8401E+5	4.5241	0.0610	+4.8
288.31	6.8451E+5	4.5227	Inf	+8.7
288.50	6.8501E+5	4.5283	0.0561	-1.4
288.70	6.8551E+5	4.5241	0.0545	+11.1
288.88	6.8601E+5	4.5326	0.0570	+7.2
289.08	6.8651E+5	4.5269	0.0564	+3.0
289.26	6.8701E+5	4.5297	0.0546	-344.9
289.45	6.8751E+5	4.5212	0.0517	-339.9
289.65	6.8801E+5	4.5269	0.0599	-3.4
289.85	6.8851E+5	4.5227	0.0561	+2.8
290.03	6.8901E+5	4.5340	0.0558	+7.0
290.23	6.8951E+5	4.5283	0.0574	-3.0
290.41	6.9001E+5	4.5255	0.0576	+4.8
290.60	6.9051E+5	4.5255	0.0563	+6.6
290.79	6.9101E+5	4.5227	0.0571	+2.3
290.96	6.9151E+5	4.5311	0.0616	+7.7
291.16	6.9201E+5	4.5198	0.0544	-3.1
291.36	6.9251E+5	4.5241	Inf	+3.8
291.53	6.9301E+5	4.5241	0.0636	+5.5
291.73	6.9351E+5	4.5326	0.0558	+2.8
291.91	6.9401E+5	4.5142	0.0553	-347.5
292.09	6.9451E+5	4.5212	0.0555	+1.0
292.27	6.9501E+5	4.5198	0.0525	-348.1
292.46	6.9551E+5	4.5269	0.0553	+12.0
292.66	6.9601E+5	4.5198	0.0614	+1.1
292.86	6.9651E+5	4.5255	0.0528	-349.0
293.04	6.9701E+5	4.5241	Inf	+1.6
293.22	6.9751E+5	4.5297	0.0646	-9.5
293.41	6.9801E+5	4.5255	0.0624	+7.4
293.61	6.9851E+5	4.5255	0.0572	+1.8
293.80	6.9901E+5	4.5227	0.0515	-351.6
293.99	6.9951E+5	4.5297	0.0633	-8.8
294.19	7.0001E+5	4.5297	0.0550	+13.2
294.37	7.0051E+5	4.5212	0.0516	-352.0
294.57	7.0101E+5	4.5283	0.0563	+10.1
294.77	7.0151E+5	4.5227	0.0601	+17.1
294.95	7.0201E+5	4.5269	Inf	+Inf
295.13	7.0251E+5	4.5255	0.0528	-1.0
295.33	7.0301E+5	4.5241	0.0549	+2.5
295.52	7.0351E+5	4.5297	0.0602	-7.9
295.72	7.0401E+5	4.5227	0.0549	+4.3
295.90	7.0451E+5	4.5283	0.0552	+9.8
296.08	7.0501E+5	4.5241	0.0539	+8.0
296.28	7.0551E+5	4.5269	0.0550	+7.4
296.47	7.0601E+5	4.5311	0.0538	+350.3
296.67	7.0651E+5	4.5241	0.0561	-362.0
296.85	7.0701E+5	4.5269	0.0536	+6.6
297.05	7.0751E+5	4.5269	0.0559	+7.3
297.25	7.0801E+5	4.5269	0.0628	-5.6
297.43	7.0851E+5	4.5269	0.0553	-350.0
297.63	7.0901E+5	4.5283	0.0550	+358.9
297.80	7.0951E+5	4.5255	0.0549	+6.0
297.98	7.1001E+5	4.5269	0.0538	+1.3
298.18	7.1051E+5	4.5227	0.0544	-0.1
298.35	7.1101E+5	4.5198	0.0580	+13.2
298.54	7.1151E+5	4.5269	Inf	+6.6
298.71	7.1201E+5	4.5283	0.0531	+8.4
298.91	7.1251E+5	4.5255	0.0583	+1.3
299.09	7.1301E+5	4.5227	0.0510	-351.5
299.29	7.1351E+5	4.5241	Inf	+367.6
299.48	7.1401E+5	4.5255	0.0516	-1.8
299.66	7.1451E+5	4.5170	0.0621	+18.0
299.86	7.1501E+5	4.5255	Inf	+11.5
300.02	7.1551E+5	4.5283	0.0555	+5.1
300.23	7.1601E+5	4.5269	0.0521	-345.9
300.42	7.1651E+5	4.5227	0.0606	+12.1
300.61	7.1701E+5	4.5269	Inf	-352.1
300.79	7.1751E+5	4.5255	0.0525	+0.6
300.97	7.1801E+5	4.5212	0.0525	+8.9
301.16	7.1851E+5	4.5283	0.0522	+353.7
301.34	7.1901E+5	4.5241	0.0537	+3.8
301.50	7.1951E+5	4.5227	Inf	+5.1
301.69	7.2001E+5	4.5297	0.0533	+3.8
301.85	7.2051E+5	4.5283	0.0621	-18.1
302.05	7.2101E+5	4.5311	Inf	-5.1
302.22	7.2151E+5	4.5212	0.0581	+9.1
302.42	7.2201E+5	4.5269	0.0506	-351.7
302.62	7.2251E+5	4.5198	0.0568	+6.4
302.80	7.2301E+5	4.5283	0.0505	-345.7
303.00	7.2351E+5	4.5311	0.0593	+9.4
303.19	7.2401E+5	4.5255	0.0529	+6.6
303.38	7.2451E+5	4.5269	Inf	-368.4
303.55	7.2501E+5	4.5241	0.0503	-351.3
303.75	7.2551E+5	4.5255	0.0564	+336.5
303.95	7.2601E+5	4.5269	0.0494	-350.3
304.13	7.2651E+5	4.5184	0.0520	+10.0
304.33	7.2701E+5	4.5184	0.0517	+5.3
304.50	7.2751E+5	4.5170	0.0517	-6.3
304.68	7.2801E+5	4.5269	0.0503	+4.1
304.86	7.2851E+5	4.5269	Inf	+3.1
305.05	7.2901E+5	4.5198	0.0526	+3.2
305.25	7.2951E+5	4.5241	Inf	+373.7
305.41	7.3001E+5	4.5283	0.0509	+4.1
305.61	7.3051E+5	4.5184	0.0545	+2.1
305.80	7.3101E+5	4.5255	0.0530	-4.6
306.00	7.3151E+5	4.5227	0.0513	+0.6
306.18	7.3201E+5	4.5255	0.0588	+1.1
306.38	7.3251E+5	4.5255	0.0528	+7.8
306.56	7.3301E+5	4.5227	0.0540	+3.0
306.76	7.3351E+5	4.5241	0.0508	+5.7
306.96	7.3401E+5	4.5311	0.0557	+358.8
307.14	7.3451E+5	4.5212	0.0534	+3.3
307.34	7.3501E+5	4.5326	0.0542	-348.6
307.51	7.3551E+5	4.5283	0.0517	-348.2
307.71	7.3601E+5	4.5212	Inf	-1.1
307.87	7.3651E+5	4.5311	Inf	-366.8
308.06	7.3701E+5	4.5212	0.0590	-3.7
308.24	7.3751E+5	4.5212	Inf	+11.1
308.42	7.3801E+5	4.5255	Inf	-0.5
308.61	7.3851E+5	4.5212	Inf	+3.9
308.77	7.3901E+5	4.5198	0.0518	+7.7
308.97	7.3951E+5	4.5311	Inf	+361.1
309.14	7.4001E+5	4.5198	Inf	-366.7
309.32	7.4051E+5	4.5255	Inf	+12.1
309.49	7.4101E+5	4.5241	0.0559	+8.7
309.69	7.4151E+5	4.5297	0.0524	+4.3
309.87	7.4201E+5	4.5198	Inf	+2.1
310.05	7.4251E+5	4.5255	0.0516	+4.3
310.24	7.4301E+5	4.5269	0.0518	-3.6
310.44	7.4351E+5	4.5241	0.0513	+7.9
310.63	7.4401E+5	4.5255	0.0513	-352.5
310.80	7.4451E+5	4.5283	0.0530	-1.1
311.00	7.4501E+5	4.5184	0.0492	-353.4
311.19	7.4551E+5	4.5241	0.0524	+3.6
311.38	7.4601E+5	4.5269	Inf	-8.3
311.55	7.4651E+5	4.5326	0.0524	+0.0
311.73	7.4701E+5	4.5227	Inf	+2.4
311.90	7.4751E+5	4.5269	Inf	+9.3
312.08	7.4801E+5	4.5241	0.0522	+3.1
312.25	7.4851E+5	4.5241	0.0517	+357.3
312.43	7.4901E+5	4.5227	0.0505	-2.3
312.62	7.4951E+5	4.5212	0.0560	-2.1
312.81	7.5001E+5	4.5340	0.0517	+12.7
313.01	7.5051E+5	4.5340	0.0518	+12.3
313.18	7.5101E+5	4.5184	0.0495	-352.8
313.38	7.5151E+5	4.5269	0.0497	+5.7
313.55	7.5201E+5	4.5170	0.0519	-349.5
313.75	7.5251E+5	4.5255	0.0501	-0.5
313.93	7.5301E+5	4.5255	Inf	-1.2
314.10	7.5351E+5	4.5198	0.0504	-354.3
314.28	7.5401E+5	4.5269	0.0565	-10.2
314.48	7.5451E+5	4.5255	0.0485	+7.7
314.66	7.5501E+5	4.5227	Inf	-367.6
314.84	7.5551E+5	4.5241	0.0516	-0.4
315.03	7.5601E+5	4.5184	0.0508	+5.3
315.21	7.5651E+5	4.5227	Inf	+381.8
315.37	7.5701E+5	4.5184	Inf	+5.6
315.56	7.5751E+5	4.5269	0.0562	+11.1
315.74	7.5801E+5	4.5212	0.0492	+8.6
315.92	7.5851E+5	4.5297	0.0480	+7.9
316.09	7.5901E+5	4.5227	0.0476	+346.2
316.26	7.5951E+5	4.5241	Inf	+1.2
316.44	7.6001E+5	4.5198	0.0484	-345.8
316.59	7.6051E+5	4.5283	0.0504	+0.1
316.79	7.6101E+5	4.5241	0.0489	+355.3
316.97	7.6151E+5	4.5212	Inf	+7.6
317.15	7.6201E+5	4.5283	Inf	+14.1
317.30	7.6251E+5	4.5255	0.0535	+1.6
317.50	7.6301E+5	4.5269	0.0493	+4.0
317.69	7.6351E+5	4.5241	0.0548	-0.4
317.89	7.6401E+5	4.5212	0.0488	-352.7
318.07	7.6451E+5	4.5311	0.0522	+0.0
318.27	7.6501E+5	4.5269	Inf	+3.7
318.44	7.6551E+5	4.5241	0.0491	-1.4
318.64	7.6601E+5	4.5269	0.0497	+1.2
318.80	7.6651E+5	4.5212	Inf	-0.6
318.98	7.6701E+5	4.5255	0.0496	+6.8
319.15	7.6751E+5	4.5297	0.0492	-356.4
319.33	7.6801E+5	4.5241	Inf	-2.5
319.50	7.6851E+5	4.5170	0.0558	+3.4
319.70	7.6901E+5	4.5255	0.0495	+356.0
319.88	7.6951E+5	4.5241	0.0498	+6.5
320.07	7.7001E+5	4.5212	0.0495	+2.8
320.23	7.7051E+5	4.5241	0.0500	+5.7
320.41	7.7101E+5	4.5212	Inf	+4.6
320.58	7.7151E+5	4.5184	Inf	-360.1
320.76	7.7201E+5	4.5184	0.0490	+1.1
320.93	7.7251E+5	4.5170	0.0563	+3.2
321.13	7.7301E+5	4.5283	0.0493	+2.1
321.31	7.7351E+5	4.5241	0.0500	+4.9
321.50	7.7401E+5	4.5255	Inf	+3.5
321.66	7.7451E+5	4.5212	0.0512	+1.3
321.86	7.7501E+5	4.5170	0.0531	+3.5
322.05	7.7551E+5	4.5156	0.0484	+1.1
322.24	7.7601E+5	4.5212	Inf	+3.2
322.41	7.7651E+5	4.5184	0.0493	-1.5
322.61	7.7701E+5	4.5212	Inf	+360.7
322.78	7.7751E+5	4.5156	0.0525	+355.2
322.98	7.7801E+5	4.5156	0.0495	+356.5
323.16	7.7851E+5	4.5184	0.0490	+8.0
323.34	7.7901E+5	4.5269	0.0495	+2.4
323.51	7.7951E+5	4.5170	0.0492	+1.7
323.69	7.8001E+5	4.5227	0.0489	-354.2
323.86	7.8051E+5	4.5212	0.0543	-3.1
324.06	7.8101E+5	4.5255	0.0577	-24.2
324.24	7.8151E+5	4.5128	0.0482	-355.6
324.44	7.8201E+5	4.5156	0.0499	+0.1
324.62	7.8251E+5	4.5212	0.0493	-4.1
324.81	7.8301E+5	4.5198	Inf	+9.9
324.97	7.8351E+5	4.5269	Inf	+0.6
325.15	7.8401E+5	4.5297	0.0509	+352.5
325.34	7.8451E+5	4.5184	0.0532	+4.9
325.54	7.8501E+5	4.5142	0.0469	+357.0
325.72	7.8551E+5	4.5184	0.0604	-23.0
325.92	7.8601E+5	4.5156	0.0477	+350.6
326.10	7.8651E+5	4.5128	0.0504	+349.3
326.30	7.8701E+5	4.5170	0.0481	+2.0
326.48	7.8751E+5	4.5255	0.0473	+0.0
326.68	7.8801E+5	4.5156	0.0484	-354.7
326.87	7.8851E+5	4.5255	0.0467	+0.0
327.07	7.8901E+5	4.5198	0.0486	+351.1
327.25	7.8951E+5	4.5255	0.0482	+4.0
327.43	7.9001E+5	4.5227	0.0485	-349.6
327.60	7.9051E+5	4.5269	0.0478	+9.3
327.77	7.9101E+5	4.5170	0.0484	-1.3
327.95	7.9151E+5	4.5170	0.0553	-7.0
328.13	7.9201E+5	4.5198	0.0504	-347.3
328.33	7.9251E+5	4.5142	Inf	+10.8
328.50	7.9301E+5	4.5099	Inf	-11.6
328.70	7.9351E+5	4.5170	Inf	-16.0
328.88	7.9401E+5	4.5170	Inf	+8.3
329.06	7.9451E+5	4.5198	Inf	+0.4
329.23	7.9501E+5	4.5255	0.0472	-348.7
329.43	7.9551E+5	4.5241	0.0481	-351.6
329.61	7.9601E+5	4.5184	Inf	+0.1
329.80	7.9651E+5	4.5227	0.0492	-355.3
329.98	7.9701E+5	4.5297	0.0496	-2.9
330.16	7.9751E+5	4.5170	0.0485	+1.4
330.34	7.9801E+5	4.5184	Inf	+343.3
330.53	7.9851E+5	4.5227	0.0485	-358.4
330.69	7.9901E+5	4.5128	0.0481	+7.0
330.87	7.9951E+5	4.5156	Inf	+351.4
331.04	8.0001E+5	4.5227	0.0469	-346.0
331.22	8.0051E+5	4.5142	Inf	-2.9
331.39	8.0101E+5	4.5184	Inf	-5.2
331.56	8.0151E+5	4.5156	Inf	+12.4
331.74	8.0201E+5	4.5227	0.0477	-352.6
331.92	8.0251E+5	4.5184	0.0468	+1.0
332.12	8.0301E+5	4.5170	0.0482	+1.7
332.31	8.0351E+5	4.5212	0.0482	-348.2
332.49	8.0401E+5	4.5212	0.0481	+2.6
332.65	8.0451E+5	4.5156	0.0479	+0.6
332.84	8.0501E+5	4.5198	Inf	+5.8
333.00	8.0551E+5	4.5184	0.0484	+2.5
333.19	8.0601E+5	4.5170	0.0497	+351.4
333.37	8.0651E+5	4.5212	0.0478	+358.8
333.57	8.0701E+5	4.5198	Inf	+3.5
333.74	8.0751E+5	4.5170	0.0490	+353.9
333.92	8.0801E+5	4.5198	0.0466	-354.5
334.12	8.0851E+5	4.5170	Inf	-4.7
334.28	8.0901E+5	4.5227	Inf	+5.1
334.47	8.0951E+5	4.5156	0.0493	-352.7
334.65	8.1001E+5	4.5283	0.0475	-1.3
334.85	8.1051E+5	4.5184	0.0539	-11.5
335.03	8.1101E+5	4.5184	0.0478	+3.1
335.23	8.1151E+5	4.5198	0.0473	+352.0
335.42	8.1201E+5	4.5184	0.0473	-9.2
335.60	8.1251E+5	4.5142	0.0474	+1.2
335.78	8.1301E+5	4.5227	Inf	+6.1
335.95	8.1351E+5	4.5170	0.0482	+4.0
336.13	8.1401E+5	4.5198	Inf	-5.4
336.30	8.1451E+5	4.5198	0.0479	+354.7
336.48	8.1501E+5	4.5212	0.0475	-356.0
336.65	8.1551E+5	4.5269	0.0472	+0.1
336.85	8.1601E+5	4.5170	0.0478	+7.4
337.03	8.1651E+5	4.5170	Inf	+2.2
337.21	8.1701E+5	4.5241	0.0478	-355.9
337.38	8.1751E+5	4.5128	0.0476	+353.7
337.54	8.1801E+5	4.5241	0.0475	+2.5
337.71	8.1851E+5	4.5198	0.0469	+5.6
337.89	8.1901E+5	4.5212	0.0474	+7.5
338.09	8.1951E+5	4.5198	0.0475	-5.0
338.26	8.2001E+5	4.5212	0.0488	+352.2
338.46	8.2051E+5	4.5156	0.0475	-3.2
338.64	8.2101E+5	4.5227	Inf	+9.9
338.82	8.2151E+5	4.5113	Inf	-4.4
339.01	8.2201E+5	4.5239	0.0470	-354.8
339.22	8.2251E+5	4.5142	Inf	+4.6
339.39	8.2301E+5	4.5071	0.0466	-352.0
339.57	8.2351E+5	4.5256	0.0475	+3.3
339.79	8.2401E+5	4.5212	Inf	+351.7
339.95	8.2451E+5	4.5113	0.0473	-352.4
340.17	8.2501E+5	4.5170	Inf	-15.6
340.36	8.2551E+5	4.5170	Inf	-10.8
340.54	8.2601E+5	4.5184	0.0466	-0.1
340.70	8.2651E+5	4.5142	Inf	-1.2
340.87	8.2701E+5	4.5212	0.0515	-12.4
341.07	8.2751E+5	4.5198	0.0466	+3.3
341.25	8.2801E+5	4.5085	0.0472	+0.6
341.45	8.2851E+5	4.5184	0.0476	+357.2
341.65	8.2901E+5	4.5212	0.0474	+353.9
341.83	8.2951E+5	4.5212	0.0470	+0.0
342.00	8.3001E+5	4.5170	Inf	+340.4
342.19	8.3051E+5	4.5128	0.0461	-2.1
342.35	8.3101E+5	4.5212	0.0471	+3.4
342.50	8.3151E+5	4.5170	0.0562	-23.5
342.70	8.3201E+5	4.5099	Inf	+1.4
342.88	8.3251E+5	4.5150	0.0467	+0.6
343.10	8.3301E+5	4.5071	0.0456	+8.3
343.30	8.3351E+5	4.5186	Inf	+6.3
343.50	8.3401E+5	4.5142	0.0465	-0.2
343.68	8.3451E+5	4.5170	0.0506	+9.9
343.87	8.3501E+5	4.5085	0.0468	+359.7
344.08	8.3551E+5	4.5203	0.0492	+345.1
344.28	8.3601E+5	4.5099	0.0475	-348.7
344.50	8.3651E+5	4.5201	0.0464	+358.2
344.70	8.3701E+5	4.5198	0.0474	+5.6
344.89	8.3751E+5	4.5156	0.0473	-362.6
345.08	8.3801E+5	4.5156	0.0465	-0.6
345.25	8.3851E+5	4.5184	0.0472	-350.9
345.43	8.3901E+5	4.5212	0.0474	+0.0
345.61	8.3951E+5	4.5099	0.0468	+3.5
345.83	8.4001E+5	4.5057	Inf	+1.1
345.99	8.4051E+5	4.5129	0.0470	-356.7
346.19	8.4101E+5	4.5212	Inf	+1.7
346.36	8.4151E+5	4.5128	0.0448	+352.0
346.54	8.4201E+5	4.5184	0.0461	-1.1
346.74	8.4251E+5	4.5128	0.0463	+2.7
346.91	8.4301E+5	4.5128	Inf	+12.2
347.09	8.4351E+5	4.5156	0.0459	+1.2
347.27	8.4401E+5	4.5113	Inf	+3.0
347.47	8.4451E+5	4.5122	Inf	+4.4
347.66	8.4501E+5	4.5113	Inf	+351.0
347.84	8.4551E+5	4.5170	Inf	+3.5
348.04	8.4601E+5	4.5099	Inf	+2.9
348.22	8.4651E+5	4.5132	0.0470	-359.5
348.44	8.4701E+5	4.5156	Inf	+13.0
348.60	8.4751E+5	4.5212	0.0451	+5.0
348.79	8.4801E+5	4.5071	0.0472	+357.9
349.00	8.4851E+5	4.5154	0.0455	+2.0
349.20	8.4901E+5	4.5156	0.0460	-6.3
349.39	8.4951E+5	4.5170	0.0458	+4.0
349.55	8.5001E+5	4.5071	Inf	+1.4
349.75	8.5051E+5	4.5143	Inf	-4.3
349.94	8.5101E+5	4.5113	0.0463	+351.3
350.13	8.5151E+5	4.5111	Inf	+3.2
350.32	8.5201E+5	4.5101	0.0471	-354.8
350.48	8.5251E+5	4.5101	0.0465	+7.5
350.67	8.5301E+5	4.5096	Inf	-1.4
350.83	8.5351E+5	4.5113	0.0462	-349.7
351.00	8.5401E+5	4.5150	0.0455	-2.5
351.22	8.5451E+5	4.5128	0.0455	-2.9
351.38	8.5501E+5	4.5128	0.0458	-8.2
351.56	8.5551E+5	4.5184	0.0463	-355.2
351.75	8.5601E+5	4.5099	Inf	-3.7
351.91	8.5651E+5	4.5161	0.0462	-6.2
352.12	8.5701E+5	4.5128	0.0461	+359.7
352.28	8.5751E+5	4.5099	Inf	+9.1
352.48	8.5801E+5	4.5135	0.0452	-1.4
352.68	8.5851E+5	4.5156	Inf	+1.9
352.86	8.5901E+5	4.5156	0.0457	-358.1
353.03	8.5951E+5	4.5156	0.0448	+360.2
353.19	8.6001E+5	4.5156	0.0456	-3.3
353.38	8.6051E+5	4.5113	Inf	+1.2
353.56	8.6101E+5	4.5120	Inf	+342.0
353.76	8.6151E+5	4.5198	Inf	+4.3
353.93	8.6201E+5	4.5156	Inf	-1.6
354.09	8.6251E+5	4.5184	0.0451	-0.5
354.26	8.6301E+5	4.5142	Inf	+1.1
354.43	8.6351E+5	4.5184	0.0452	-358.9
354.61	8.6401E+5	4.5113	Inf	+0.8
354.79	8.6451E+5	4.5161	0.0455	+2.7
354.96	8.6501E+5	4.5142	0.0444	+3.6
355.16	8.6551E+5	4.5071	0.0470	+0.5
355.36	8.6601E+5	4.5064	0.0454	+5.8
355.56	8.6651E+5	4.5095	0.0464	-4.5
355.74	8.6701E+5	4.5112	0.0450	-2.0
355.92	8.6751E+5	4.5163	0.0449	-5.5
356.12	8.6801E+5	4.5170	Inf	-10.8
356.29	8.6851E+5	4.5156	0.0457	+1.9
356.45	8.6901E+5	4.5113	Inf	-11.1
356.64	8.6951E+5	4.5098	0.0467	+354.2
356.82	8.7001E+5	4.5132	Inf	-4.9
357.02	8.7051E+5	4.5113	0.0461	-360.5
357.20	8.7101E+5	4.5095	Inf	+3.0
357.38	8.7151E+5	4.5082	0.0451	+0.6
357.57	8.7201E+5	4.5060	0.0457	+0.8
357.73	8.7251E+5	4.5106	0.0460	-358.3
357.94	8.7301E+5	4.5122	0.0459	+355.0
358.13	8.7351E+5	4.5128	0.0445	-4.9
358.33	8.7401E+5	4.5099	0.0453	-359.5
358.53	8.7451E+5	4.5108	0.0447	+1.7
358.70	8.7501E+5	4.5242	Inf	+344.4
358.90	8.7551E+5	4.5128	0.0439	-0.5
359.08	8.7601E+5	4.5099	0.0451	-355.4
359.28	8.7651E+5	4.5156	0.0449	+2.8
359.48	8.7701E+5	4.5113	0.0457	-358.1
359.67	8.7751E+5	4.5135	0.0459	-358.6
359.86	8.7801E+5	4.5085	0.0447	-0.9
360.05	8.7851E+5	4.5006	Inf	-5.2
360.20	8.7901E+5	4.5091	0.0446	+2.2
360.38	8.7951E+5	4.5159	Inf	-356.7
360.56	8.8001E+5	4.5198	0.0439	+0.0
360.76	8.8051E+5	4.5142	Inf	-0.6
360.93	8.8101E+5	4.5043	0.0449	+4.3
361.13	8.8151E+5	4.5088	Inf	-2.7
361.31	8.8201E+5	4.5091	0.0457	+355.9
361.48	8.8251E+5	4.5109	0.0465	-0.3
361.68	8.8301E+5	4.5075	Inf	-0.3
361.84	8.8351E+5	4.5133	0.0446	-5.9
362.04	8.8401E+5	4.5156	Inf	+345.2
362.23	8.8451E+5	4.5128	0.0452	+1.3
362.39	8.8501E+5	4.5142	Inf	-4.8
362.56	8.8551E+5	4.5128	0.0441	-3.5
362.76	8.8601E+5	4.5071	0.0441	+2.9
362.94	8.8651E+5	4.5101	Inf	+2.7
363.12	8.8701E+5	4.5183	0.0449	-361.1
363.32	8.8751E+5	4.5099	Inf	+1.0
363.49	8.8801E+5	4.5071	0.0445	+8.6
363.69	8.8851E+5	4.5064	0.0454	-360.3
363.87	8.8901E+5	4.5174	Inf	-13.9
364.05	8.8951E+5	4.5113	0.0468	+355.0
364.27	8.9001E+5	4.5125	0.0444	+3.7
364.47	8.9051E+5	4.5000	Inf	-16.3
364.67	8.9101E+5	4.5154	0.0447	-9.1
364.87	8.9151E+5	4.5099	0.0444	-0.8
365.07	8.9201E+5	4.5109	0.0448	-356.9
365.27	8.9251E+5	4.5051	Inf	+11.3
365.43	8.9301E+5	4.5050	0.0453	-356.6
365.60	8.9351E+5	4.5128	0.0445	+1.1
365.82	8.9401E+5	4.5057	0.0452	-3.9
366.02	8.9451E+5	4.5129	Inf	+348.4
366.22	8.9501E+5	4.5099	0.0446	-357.9
366.40	8.9551E+5	4.5128	Inf	-19.4
366.58	8.9601E+5	4.5156	0.0448	+353.7
366.76	8.9651E+5	4.5128	0.0436	+356.9
366.95	8.9701E+5	4.5085	0.0452	+360.3
367.15	8.9751E+5	4.5102	Inf	-17.5
367.33	8.9801E+5	4.5091	0.0440	+356.3
367.51	8.9851E+5	4.5023	0.0463	-358.7
367.71	8.9901E+5	4.5091	0.0441	+361.1
367.90	8.9951E+5	4.5060	Inf	-22.3
368.06	9.0001E+5	4.5067	0.0452	-359.0
368.26	9.0051E+5	4.5128	Inf	+9.3
368.44	9.0101E+5	4.5085	0.0463	+360.6
368.64	9.0151E+5	4.5157	0.0447	+356.4
368.86	9.0201E+5	4.5113	0.0438	+6.5
369.06	9.0251E+5	4.5095	Inf	-7.3
369.24	9.0301E+5	4.5054	0.0448	-0.7
369.43	9.0351E+5	4.5088	0.0444	+351.5
369.61	9.0401E+5	4.5101	0.0442	+3.9
369.79	9.0451E+5	4.5067	0.0440	+353.2
369.96	9.0501E+5	4.5166	Inf	+347.8
370.12	9.0551E+5	4.5057	0.0445	-361.6
370.32	9.0601E+5	4.5180	0.0442	-357.9
370.51	9.0651E+5	4.5085	Inf	-2.5
370.69	9.0701E+5	4.5053	Inf	+3.3
370.87	9.0751E+5	4.5068	Inf	-24.2
371.04	9.0801E+5	4.5104	0.0441	+0.7
371.22	9.0851E+5	4.5065	0.0435	+2.0
371.39	9.0901E+5	4.5150	0.0442	+1.0
371.57	9.0951E+5	4.5057	0.0433	+2.5
371.77	9.1001E+5	4.5092	Inf	-2.1
371.94	9.1051E+5	4.5082	0.0440	+359.2
372.11	9.1101E+5	4.5092	0.0435	-1.8
372.29	9.1151E+5	4.5068	Inf	-9.7
372.45	9.1201E+5	4.5108	0.0438	-357.9
372.62	9.1251E+5	4.5024	0.0439	+8.2
372.80	9.1301E+5	4.5047	0.0434	-8.5
372.97	9.1351E+5	4.5081	Inf	+3.1
373.15	9.1401E+5	4.5041	0.0453	+4.6
373.33	9.1451E+5	4.5051	0.0440	+5.3
373.52	9.1501E+5	4.5020	0.0452	-350.4
373.72	9.1551E+5	4.5128	0.0436	+2.3
373.92	9.1601E+5	4.5029	Inf	+0.7
374.10	9.1651E+5	4.5074	0.0449	-358.4
374.30	9.1701E+5	4.5055	0.0439	+9.1
374.48	9.1751E+5	4.5053	0.0437	-2.1
374.63	9.1801E+5	4.5038	0.0436	-3.8
374.81	9.1851E+5	4.5082	Inf	+0.0
374.98	9.1901E+5	4.5050	0.0450	+363.0
375.17	9.1951E+5	4.5077	0.0443	+357.2
375.36	9.2001E+5	4.5041	Inf	+352.2
375.53	9.2051E+5	4.5160	0.0447	+358.8
375.75	9.2101E+5	4.5085	0.0434	-0.8
375.94	9.2151E+5	4.4961	0.0445	-1.8
376.11	9.2201E+5	4.5084	0.0436	-4.5
376.30	9.2251E+5	4.5005	0.0443	+0.0
376.46	9.2301E+5	4.5070	0.0425	-5.7
376.63	9.2351E+5	4.4982	0.0400	-2.2
376.81	9.2401E+5	4.5082	0.0441	-4.0
376.99	9.2451E+5	4.5067	0.0476	-361.8
377.18	9.2501E+5	4.5079	0.0461	+355.2
377.38	9.2551E+5	4.5078	Inf	+341.0
377.54	9.2601E+5	4.5031	Inf	-0.2
377.71	9.2651E+5	4.5197	0.0431	-0.8
377.93	9.2701E+5	4.4972	Inf	+2.3
378.11	9.2751E+5	4.5154	0.0427	-1.3
378.29	9.2801E+5	4.5113	Inf	+350.0
378.49	9.2851E+5	4.5095	Inf	+7.5
378.65	9.2901E+5	4.5047	0.0431	-7.9
378.82	9.2951E+5	4.5132	Inf	+2.8
379.02	9.3001E+5	4.5071	Inf	+344.9
379.19	9.3051E+5	4.5016	Inf	+1.5
379.37	9.3101E+5	4.5079	Inf	-0.7
379.52	9.3151E+5	4.5064	Inf	+3.9
379.69	9.3201E+5	4.5014	Inf	-2.5
379.87	9.3251E+5	4.5087	0.0433	-8.9
380.04	9.3301E+5	4.5031	Inf	+10.2
380.20	9.3351E+5	4.5003	Inf	-1.3
380.39	9.3401E+5	4.5055	0.0464	+360.3
380.57	9.3451E+5	4.5072	0.0430	+3.2
380.75	9.3501E+5	4.5084	Inf	-17.0
380.94	9.3551E+5	4.5096	0.0438	-1.0
381.12	9.3601E+5	4.4996	Inf	-349.7
381.28	9.3651E+5	4.4971	0.0453	-363.6
381.48	9.3701E+5	4.5088	0.0431	+355.9
381.67	9.3751E+5	4.5054	0.0437	+359.7
381.85	9.3801E+5	4.4973	0.0434	+4.1
382.03	9.3851E+5	4.5033	0.0439	-1.0
382.20	9.3901E+5	4.5085	Inf	-0.8
382.35	9.3951E+5	4.5050	Inf	-11.8
382.51	9.4001E+5	4.4979	Inf	-354.4
382.67	9.4051E+5	4.5031	0.0426	-357.1
382.85	9.4101E+5	4.5023	0.0450	+354.6
383.05	9.4151E+5	4.4978	Inf	+10.0
383.21	9.4201E+5	4.5000	0.0427	-1.2
383.38	9.4251E+5	4.4999	Inf	+352.7
383.55	9.4301E+5	4.5013	Inf	+347.3
383.71	9.4351E+5	4.5044	0.0431	+5.6
383.88	9.4401E+5	4.4955	Inf	-13.3
384.06	9.4451E+5	4.4999	0.0423	-2.6
384.23	9.4501E+5	4.5040	0.0443	-6.4
384.41	9.4551E+5	4.4996	0.0429	+355.4
384.61	9.4601E+5	4.5038	0.0428	-359.7
384.78	9.4651E+5	4.5034	0.0429	-11.2
384.93	9.4701E+5	4.5109	0.0463	-357.1
385.12	9.4751E+5	4.4968	Inf	-6.7
385.27	9.4801E+5	4.5067	0.0431	+3.1
385.46	9.4851E+5	4.5002	0.0426	-355.1
385.64	9.4901E+5	4.5007	Inf	-2.2
385.81	9.4951E+5	4.4980	0.0436	-6.0
385.99	9.5001E+5	4.5101	0.0421	-0.3
386.19	9.5051E+5	4.4959	0.0427	+2.2
386.36	9.5101E+5	4.5054	0.0439	+7.2
386.52	9.5151E+5	4.5007	0.0468	-358.5
386.72	9.5201E+5	4.4973	0.0431	-355.7
386.90	9.5251E+5	4.5010	Inf	-1.7
387.07	9.5301E+5	4.4948	Inf	+1.4
387.25	9.5351E+5	4.5048	Inf	+348.0
387.42	9.5401E+5	4.5009	Inf	-10.7
387.59	9.5451E+5	4.4992	0.0434	+360.3
387.79	9.5501E+5	4.5014	0.0434	+0.2
387.95	9.5551E+5	4.4990	0.0451	+361.2
388.12	9.5601E+5	4.4927	0.0449	+361.0
388.29	9.5651E+5	4.5021	0.0421	+3.6
388.47	9.5701E+5	4.5029	Inf	+329.0
388.63	9.5751E+5	4.5078	Inf	+6.0
388.80	9.5801E+5	4.5037	Inf	-14.6
388.97	9.5851E+5	4.5065	0.0430	+355.5
389.13	9.5901E+5	4.5044	Inf	+2.1
389.32	9.5951E+5	4.5077	0.0436	+5.5
389.50	9.6001E+5	4.5082	Inf	-14.7
389.67	9.6051E+5	4.5014	0.0428	+356.7
389.87	9.6101E+5	4.4982	Inf	-351.7
390.03	9.6151E+5	4.5064	0.0382	-5.9
390.21	9.6201E+5	4.5065	0.0438	-358.6
390.42	9.6251E+5	4.5033	0.0415	+358.1
390.60	9.6301E+5	4.4980	0.0458	+362.3
390.78	9.6351E+5	4.5021	0.0431	+0.9
390.98	9.6401E+5	4.4956	Inf	-12.5
391.15	9.6451E+5	4.5087	0.0422	-3.1
391.33	9.6501E+5	4.5046	0.0413	+0.7
391.53	9.6551E+5	4.5071	Inf	+338.3
391.69	9.6601E+5	4.4986	0.0418	-1.6
391.86	9.6651E+5	4.5082	0.0417	-6.6
392.06	9.6701E+5	4.4941	Inf	-5.1
392.23	9.6751E+5	4.5013	0.0419	-3.1
392.41	9.6801E+5	4.5063	0.0435	-357.2
392.59	9.6851E+5	4.5020	0.0442	+360.3
392.77	9.6901E+5	4.5009	0.0433	-0.5
392.93	9.6951E+5	4.4932	Inf	-6.3
393.09	9.7001E+5	4.4969	Inf	+346.6
393.27	9.7051E+5	4.5014	0.0449	-363.3
393.46	9.7101E+5	4.4966	0.0429	+8.0
393.64	9.7151E+5	4.4927	0.0422	+7.0
393.82	9.7201E+5	4.5044	0.0422	+6.1
393.99	9.7251E+5	4.5044	Inf	+4.9
394.16	9.7301E+5	4.4985	0.0415	-3.0
394.36	9.7351E+5	4.5029	0.0440	+363.2
394.54	9.7401E+5	4.4993	Inf	-17.4
394.70	9.7451E+5	4.5054	Inf	+350.9
394.87	9.7501E+5	4.5019	Inf	-20.5
395.04	9.7551E+5	4.5002	0.0423	+2.1
395.22	9.7601E+5	4.5014	Inf	-1.1
395.40	9.7651E+5	4.4938	Inf	+350.2
395.57	9.7701E+5	4.4958	0.0418	-356.3
395.74	9.7751E+5	4.5043	0.0410	-6.2
395.94	9.7801E+5	4.4986	Inf	-1.9
396.10	9.7851E+5	4.5029	0.0418	-354.7
396.29	9.7901E+5	4.4901	0.0417	-0.2
396.43	9.7951E+5	4.5043	Inf	-3.2
396.62	9.8001E+5	4.4915	0.0412	-1.1
396.80	9.8051E+5	4.4958	Inf	-0.7
396.97	9.8101E+5	4.5000	0.0426	+352.1
397.17	9.8151E+5	4.5071	0.0423	-0.7
397.33	9.8201E+5	4.4986	Inf	+347.6
397.48	9.8251E+5	4.4958	0.0418	-7.8
397.67	9.8301E+5	4.4986	0.0419	+4.1
397.83	9.8351E+5	4.4972	Inf	-357.3
398.00	9.8401E+5	4.4958	0.0416	-2.8
398.20	9.8451E+5	4.4915	Inf	+9.6
398.36	9.8501E+5	4.5043	0.0430	+2.1
398.53	9.8551E+5	4.5043	Inf	+342.2
398.70	9.8601E+5	4.5029	0.0421	+3.5
398.88	9.8651E+5	4.4958	Inf	-0.9
399.05	9.8701E+5	4.5057	0.0424	+358.9
399.19	9.8751E+5	4.4958	Inf	+348.1
399.38	9.8801E+5	4.5000	0.0412	+2.9
399.55	9.8851E+5	4.5000	0.0419	+356.4
399.73	9.8901E+5	4.4972	Inf	-359.1
399.89	9.8951E+5	4.5085	Inf	+0.2
400.04	9.9001E+5	4.4972	0.0425	-358.6
400.21	9.9051E+5	4.4944	0.0420	-6.1
400.39	9.9101E+5	4.4901	0.0440	+361.3
400.58	9.9151E+5	4.4958	0.0419	+1.1
400.76	9.9201E+5	4.4915	Inf	+331.4
400.93	9.9251E+5	4.5071	0.0438	-362.1
401.12	9.9301E+5	4.4972	0.0417	-1.4
401.31	9.9351E+5	4.4972	Inf	-4.8
401.48	9.9401E+5	4.4930	0.0413	+1.4
401.67	9.9451E+5	4.4958	Inf	+348.4
401.84	9.9501E+5	4.5029	Inf	-0.9
402.01	9.9551E+5	4.4972	Inf	-12.6
402.19	9.9601E+5	4.4887	Inf	+347.4
402.36	9.9651E+5	4.4944	0.0419	-360.7
402.52	9.9701E+5	4.5000	0.0441	+363.8
402.72	9.9751E+5	4.5071	Inf	-4.7
402.89	9.9801E+5	4.4972	0.0426	+4.7
403.07	9.9851E+5	4.4958	0.0415	+1.8
403.25	9.9901E+5	4.4972	Inf	-352.6
403.42	9.9951E+5	4.4972	Inf	-354.8
403.59	1.0000E+6	4.5057	0.0414	+0.9
403.75	1.0005E+6	4.4958	Inf	-3.6
403.94	1.0010E+6	4.4986	Inf	+1.1
404.10	1.0015E+6	4.5029	Inf	-0.5
404.27	1.0020E+6	4.4958	0.0438	-4.7
404.47	1.0025E+6	4.4958	0.0403	+1.4
404.65	1.0030E+6	4.5029	0.0417	-0.7
404.82	1.0035E+6	4.4944	0.0433	+364.2
405.00	1.0040E+6	4.4958	Inf	-5.2
405.18	1.0045E+6	4.4930	0.0427	+361.3
405.37	1.0050E+6	4.4930	Inf	-356.9
405.53	1.0055E+6	4.5057	Inf	-13.0
405.70	1.0060E+6	4.5085	Inf	-367.6
405.86	1.0065E+6	4.5113	Inf	+2.9
406.03	1.0070E+6	4.5156	0.0421	-6.0
406.21	1.0075E+6	4.5099	Inf	+331.9
406.41	1.0080E+6	4.5128	Inf	+2.2
406.58	1.0085E+6	4.5057	0.0410	+5.3
406.78	1.0090E+6	4.5043	0.0434	-367.1
406.96	1.0095E+6	4.5057	0.0419	+0.0
407.13	1.0100E+6	4.5113	Inf	+3.5
407.28	1.0105E+6	4.5099	Inf	-25.1
407.44	1.0110E+6	4.5085	0.0417	+357.1
407.61	1.0115E+6	4.5085	Inf	-0.2
407.76	1.0120E+6	4.5043	Inf	-1.5
407.91	1.0125E+6	4.5000	0.0438	-359.3
408.09	1.0130E+6	4.5142	0.0432	+363.3
408.26	1.0135E+6	4.5099	Inf	+2.4
408.42	1.0140E+6	4.5099	Inf	-5.8
408.59	1.0145E+6	4.5156	0.0423	+358.7
408.77	1.0150E+6	4.5043	Inf	+0.0
408.94	1.0155E+6	4.5128	0.0414	+352.5
409.12	1.0160E+6	4.5085	0.0451	-364.4
409.32	1.0165E+6	4.5071	0.0427	+360.4
409.49	1.0170E+6	4.5085	0.0413	-6.1
409.66	1.0175E+6	4.5057	0.0418	+4.0
409.86	1.0180E+6	4.5099	0.0409	+1.1
410.04	1.0185E+6	4.5128	Inf	+1.1
410.22	1.0190E+6	4.5085	Inf	-365.3
410.41	1.0195E+6	4.5128	0.0434	+362.4
410.62	1.0200E+6	4.5113	0.0398	+0.4
410.82	1.0205E+6	4.5085	Inf	+358.0
410.99	1.0210E+6	4.5057	0.0431	+357.4
411.19	1.0215E+6	4.5029	Inf	+358.3
411.35	1.0220E+6	4.5142	0.0427	+358.0
411.52	1.0225E+6	4.5071	0.0421	+362.4
411.70	1.0230E+6	4.5184	Inf	+351.0
411.90	1.0235E+6	4.5085	Inf	+364.8
412.08	1.0240E+6	4.5184	0.0405	+1.1
412.28	1.0245E+6	4.5142	0.0412	+354.1
412.47	1.0250E+6	4.5113	0.0405	-3.3
412.65	1.0255E+6	4.5043	0.0408	+2.4
412.82	1.0260E+6	4.5099	0.0410	-2.0
412.98	1.0265E+6	4.5128	Inf	-4.6
413.18	1.0270E+6	4.5043	Inf	+350.2
413.37	1.0275E+6	4.5071	Inf	+350.0
413.53	1.0280E+6	4.5113	Inf	-5.0
413.71	1.0285E+6	4.5085	0.0400	-2.0
413.90	1.0290E+6	4.5085	0.0407	-12.0
414.08	1.0295E+6	4.5099	Inf	-3.1
414.25	1.0300E+6	4.5071	Inf	-1.1
414.43	1.0305E+6	4.5057	0.0417	-359.6
414.60	1.0310E+6	4.5014	0.0435	-362.2
414.76	1.0315E+6	4.5113	0.0416	-360.2
414.96	1.0320E+6	4.5085	0.0402	+355.0
415.14	1.0325E+6	4.5043	0.0404	-2.2
415.33	1.0330E+6	4.4986	Inf	-7.3
415.49	1.0335E+6	4.5057	0.0411	-6.5
415.66	1.0340E+6	4.5142	0.0415	+4.5
415.84	1.0345E+6	4.5099	0.0419	-2.6
416.04	1.0350E+6	4.5113	Inf	+1.9
416.23	1.0355E+6	4.5043	0.0448	+357.2
416.41	1.0360E+6	4.5170	Inf	-359.1
416.59	1.0365E+6	4.5099	Inf	-357.9
416.77	1.0370E+6	4.5099	0.0406	+354.0
416.97	1.0375E+6	4.5000	Inf	+366.0
417.14	1.0380E+6	4.5113	0.0416	-3.6
417.31	1.0385E+6	4.5057	Inf	-24.3
417.47	1.0390E+6	4.5043	Inf	-12.6
417.64	1.0395E+6	4.5170	0.0425	+360.2
417.84	1.0400E+6	4.5085	0.0417	-4.5
418.00	1.0405E+6	4.5085	Inf	+347.6
418.19	1.0410E+6	4.5029	0.0407	-351.4
418.37	1.0415E+6	4.5014	Inf	+355.9
418.54	1.0420E+6	4.5099	Inf	+352.5
418.70	1.0425E+6	4.5142	Inf	+2.8
418.90	1.0430E+6	4.5043	0.0402	+0.0
419.10	1.0435E+6	4.5043	0.0420	+2.1
419.29	1.0440E+6	4.5057	Inf	-352.1
419.47	1.0445E+6	4.5043	0.0408	+5.6
419.65	1.0450E+6	4.5000	0.0404	-2.5
419.82	1.0455E+6	4.5043	Inf	-26.0
419.98	1.0460E+6	4.5043	Inf	-0.4
420.17	1.0465E+6	4.5099	Inf	-360.6
420.33	1.0470E+6	4.5029	Inf	-369.6
420.50	1.0475E+6	4.5099	0.0390	-4.9
420.67	1.0480E+6	4.5043	Inf	-0.8
420.85	1.0485E+6	4.5043	Inf	+347.7
421.01	1.0490E+6	4.5000	Inf	-10.4
421.18	1.0495E+6	4.5014	0.0399	-2.1
421.36	1.0500E+6	4.5014	0.0406	-4.9
421.53	1.0505E+6	4.5000	0.0408	+4.7
421.70	1.0510E+6	4.5099	0.0404	-3.0
421.86	1.0515E+6	4.5043	Inf	+358.9
422.05	1.0520E+6	4.5085	Inf	-12.9
422.21	1.0525E+6	4.5057	0.0401	-2.7
422.40	1.0530E+6	4.5057	Inf	-20.7
422.56	1.0535E+6	4.4958	0.0392	-2.5
422.75	1.0540E+6	4.5000	0.0412	+360.0
422.93	1.0545E+6	4.5085	Inf	+339.5
423.10	1.0550E+6	4.4986	Inf	+352.0
423.28	1.0555E+6	4.5029	Inf	-1.1
423.44	1.0560E+6	4.5071	0.0401	-3.8
423.61	1.0565E+6	4.5000	0.0403	-2.5
423.79	1.0570E+6	4.5014	0.0410	+7.0
423.98	1.0575E+6	4.5085	Inf	-4.2
424.14	1.0580E+6	4.5071	Inf	-359.2
424.29	1.0585E+6	4.4958	0.0401	-1.3
424.48	1.0590E+6	4.5000	Inf	-4.4
424.66	1.0595E+6	4.5029	0.0394	+10.1
424.82	1.0600E+6	4.5000	0.0430	+365.5
425.01	1.0605E+6	4.5029	Inf	-356.2
425.19	1.0610E+6	4.5029	0.0396	-5.7
425.37	1.0615E+6	4.5057	0.0419	+362.5
425.56	1.0620E+6	4.5043	Inf	-2.7
425.72	1.0625E+6	4.5071	0.0403	+2.5
425.92	1.0630E+6	4.5029	0.0425	+2.1
426.10	1.0635E+6	4.4972	Inf	-9.2
426.27	1.0640E+6	4.4958	0.0408	-4.8
426.45	1.0645E+6	4.5085	0.0401	+355.8
426.65	1.0650E+6	4.5043	0.0432	+365.8
426.83	1.0655E+6	4.5099	Inf	-11.7
427.00	1.0660E+6	4.5057	0.0378	-4.6
427.19	1.0665E+6	4.5014	0.0421	-362.1
427.37	1.0670E+6	4.5113	0.0404	+0.6
427.55	1.0675E+6	4.5029	Inf	+353.8
427.72	1.0680E+6	4.5000	Inf	-367.7
427.88	1.0685E+6	4.5128	Inf	+351.0
428.08	1.0690E+6	4.5029	0.0394	-1.9
428.28	1.0695E+6	4.5043	0.0401	-0.4
428.45	1.0700E+6	4.5014	0.0397	+0.2
428.63	1.0705E+6	4.5014	Inf	-13.7
428.80	1.0710E+6	4.5029	0.0398	+6.8
428.96	1.0715E+6	4.5085	0.0406	+0.2
429.13	1.0720E+6	4.4972	Inf	-1.3
429.31	1.0725E+6	4.4972	Inf	+0.4
429.48	1.0730E+6	4.5000	Inf	+359.4
429.65	1.0735E+6	4.5014	0.0395	+3.5
429.83	1.0740E+6	4.5043	0.0401	+0.6
430.01	1.0745E+6	4.5000	0.0391	-0.2
430.18	1.0750E+6	4.5029	0.0401	+6.6
430.34	1.0755E+6	4.5057	0.0402	-3.1
430.50	1.0760E+6	4.5000	Inf	-3.1
430.68	1.0765E+6	4.5029	Inf	-25.2
430.84	1.0770E+6	4.5014	0.0425	+357.9
431.03	1.0775E+6	4.5029	0.0402	-5.2
431.19	1.0780E+6	4.4972	Inf	-351.5
431.38	1.0785E+6	4.5000	0.0397	-10.3
431.54	1.0790E+6	4.5029	0.0401	+3.7
431.71	1.0795E+6	4.5000	0.0400	+6.0
431.87	1.0800E+6	4.5043	Inf	-21.0
432.04	1.0805E+6	4.5085	0.0393	+0.8
432.21	1.0810E+6	4.5057	0.0415	+359.6
432.39	1.0815E+6	4.4958	Inf	-14.0
432.56	1.0820E+6	4.5071	0.0401	-4.9
432.76	1.0825E+6	4.4944	Inf	-353.4
432.92	1.0830E+6	4.5057	Inf	-363.1
433.09	1.0835E+6	4.5029	0.0415	+363.5
433.27	1.0840E+6	4.4972	Inf	-13.3
433.45	1.0845E+6	4.4972	Inf	+345.3
433.61	1.0850E+6	4.4986	Inf	+354.3
433.77	1.0855E+6	4.5085	Inf	-32.6
433.95	1.0860E+6	4.5000	Inf	-16.4
434.12	1.0865E+6	4.5029	0.0410	+362.7
434.29	1.0870E+6	4.5029	0.0405	+358.4
434.45	1.0875E+6	4.5029	0.0404	+360.0
434.64	1.0880E+6	4.5014	0.0401	-4.5
434.82	1.0885E+6	4.4958	0.0401	-7.1
434.99	1.0890E+6	4.4986	0.0420	+2.8
435.15	1.0895E+6	4.4972	0.0401	+5.3
435.35	1.0900E+6	4.4958	Inf	+349.6
435.52	1.0905E+6	4.4930	0.0415	-361.4
435.70	1.0910E+6	4.5099	0.0396	-4.9
435.88	1.0915E+6	4.4972	Inf	-362.6
436.07	1.0920E+6	4.4958	Inf	+0.8
436.23	1.0925E+6	4.5014	Inf	-26.5
436.40	1.0930E+6	4.5057	0.0425	+366.3
436.57	1.0935E+6	4.5000	Inf	-359.4
436.75	1.0940E+6	4.5057	Inf	-15.0
436.91	1.0945E+6	4.5014	0.0397	-1.2
437.08	1.0950E+6	4.4972	0.0402	+7.1
437.25	1.0955E+6	4.5000	Inf	+358.8
437.43	1.0960E+6	4.5000	Inf	-361.6
437.60	1.0965E+6	4.5014	0.0398	+2.4
437.75	1.0970E+6	4.5029	0.0409	+357.6
437.91	1.0975E+6	4.4901	0.0400	+0.8
438.11	1.0980E+6	4.5000	0.0405	+1.2
438.30	1.0985E+6	4.4958	Inf	-356.7
438.46	1.0990E+6	4.4958	Inf	+349.9
438.61	1.0995E+6	4.5029	0.0393	-4.4
438.81	1.1000E+6	4.5000	0.0408	+357.2
438.99	1.1005E+6	4.5014	Inf	+364.3
439.16	1.1010E+6	4.4930	0.0397	-4.2
439.33	1.1015E+6	4.4944	Inf	+361.4
439.51	1.1020E+6	4.5014	0.0429	+365.2
439.69	1.1025E+6	4.4930	0.0409	-360.8
439.88	1.1030E+6	4.4859	0.0400	+0.8
440.04	1.1035E+6	4.4972	0.0428	-4.6
440.24	1.1040E+6	4.4972	Inf	-2.0
440.41	1.1045E+6	4.5000	Inf	-360.0
440.57	1.1050E+6	4.4944	Inf	+355.4
440.74	1.1055E+6	4.5029	0.0405	-2.6
440.94	1.1060E+6	4.5043	Inf	-369.6
441.11	1.1065E+6	4.4972	0.0412	+5.0
441.27	1.1070E+6	4.5000	0.0405	+5.8
441.44	1.1075E+6	4.5000	Inf	-2.0
441.61	1.1080E+6	4.4915	Inf	+358.8
441.79	1.1085E+6	4.5014	0.0410	-366.4
441.95	1.1090E+6	4.5043	Inf	-360.8
442.12	1.1095E+6	4.5057	Inf	-2.4
442.29	1.1100E+6	4.5014	Inf	-5.6
442.47	1.1105E+6	4.4944	Inf	-365.6
442.64	1.1110E+6	4.4944	0.0392	-2.6
442.82	1.1115E+6	4.4944	0.0393	+356.0
442.99	1.1120E+6	4.4972	0.0398	+0.8
443.15	1.1125E+6	4.4972	0.0396	-0.2
443.32	1.1130E+6	4.5014	Inf	+Inf
443.49	1.1135E+6	4.5014	Inf	+343.4
443.63	1.1140E+6	4.4930	Inf	-352.0
443.80	1.1145E+6	4.4958	Inf	-14.0
443.97	1.1150E+6	4.4986	0.0391	+1.2
444.13	1.1155E+6	4.4958	0.0395	+2.4
444.30	1.1160E+6	4.4972	0.0401	+357.6
444.46	1.1165E+6	4.4944	Inf	+0.4
444.63	1.1170E+6	4.4972	Inf	-354.0
444.80	1.1175E+6	4.4958	0.0401	-5.8
444.96	1.1180E+6	4.4986	0.0408	-5.4
445.16	1.1185E+6	4.4972	Inf	+332.8
445.33	1.1190E+6	4.4958	Inf	+356.2
445.50	1.1195E+6	4.4986	0.0400	+5.8
445.68	1.1200E+6	4.4915	Inf	-9.5
445.86	1.1205E+6	4.4901	0.0397	+1.4
446.03	1.1210E+6	4.4958	Inf	-355.6
446.19	1.1215E+6	4.5014	Inf	-16.5
446.36	1.1220E+6	4.4944	Inf	-10.7
446.51	1.1225E+6	4.4986	Inf	+338.7
446.69	1.1230E+6	4.4986	Inf	+3.2
446.86	1.1235E+6	4.4958	Inf	-12.9
447.03	1.1240E+6	4.4958	Inf	-8.5
447.19	1.1245E+6	4.4944	Inf	+354.8
447.38	1.1250E+6	4.5000	Inf	-359.6
447.54	1.1255E+6	4.4930	Inf	-8.9
447.69	1.1260E+6	4.4887	Inf	+347.5
447.86	1.1265E+6	4.4972	0.0399	+0.0
448.04	1.1270E+6	4.4958	Inf	-362.0
448.21	1.1275E+6	4.4958	0.0400	-4.1
448.37	1.1280E+6	4.4901	Inf	+355.9
448.52	1.1285E+6	4.4901	Inf	-10.8
448.71	1.1290E+6	4.4944	0.0399	-4.3
448.87	1.1295E+6	4.4873	0.0399	+2.0
449.04	1.1300E+6	4.5043	Inf	-368.5
449.20	1.1305E+6	4.4901	Inf	-5.9
449.39	1.1310E+6	4.4944	Inf	+356.7
449.55	1.1315E+6	4.4873	Inf	+Inf
449.70	1.1320E+6	4.4958	0.0396	-3.1
449.87	1.1325E+6	4.4901	Inf	+355.5
450.04	1.1330E+6	4.4972	0.0408	-7.2
450.22	1.1335E+6	4.4930	Inf	-363.5
450.38	1.1340E+6	4.4915	Inf	-370.6
450.55	1.1345E+6	4.4930	0.0391	+355.1
450.74	1.1350E+6	4.4887	Inf	+335.3
450.92	1.1355E+6	4.4802	0.0386	-3.7
451.12	1.1360E+6	4.4887	0.0386	-0.8
451.30	1.1365E+6	4.5000	Inf	+Inf
451.47	1.1370E+6	4.4831	Inf	+2.3
451.67	1.1375E+6	4.4972	0.0393	-3.5
451.87	1.1380E+6	4.4901	Inf	-371.9
452.03	1.1385E+6	4.4944	Inf	-361.6
452.20	1.1390E+6	4.4901	Inf	-367.4
452.36	1.1395E+6	4.4915	Inf	-3.9
452.53	1.1400E+6	4.4873	0.0381	+2.7
452.71	1.1405E+6	4.4958	0.0394	-1.4
452.90	1.1410E+6	4.4887	0.0400	+355.1
453.06	1.1415E+6	4.4944	Inf	+Inf
453.25	1.1420E+6	4.4901	Inf	-13.6
453.41	1.1425E+6	4.4930	Inf	-6.8
453.58	1.1430E+6	4.4831	0.0388	+2.3
453.78	1.1435E+6	4.5029	Inf	-370.9
453.98	1.1440E+6	4.4901	0.0399	+0.0
454.16	1.1445E+6	4.4887	Inf	+342.9
454.33	1.1450E+6	4.4845	0.0403	+363.7
454.51	1.1455E+6	4.4930	0.0396	-14.6
454.69	1.1460E+6	4.4873	Inf	-10.1
454.88	1.1465E+6	4.4915	Inf	+357.7
455.04	1.1470E+6	4.4958	Inf	+316.1
455.21	1.1475E+6	4.4901	0.0404	-0.2
455.37	1.1480E+6	4.4901	0.0388	-7.0
455.56	1.1485E+6	4.4915	Inf	-13.9
455.72	1.1490E+6	4.4887	0.0393	+2.1
455.89	1.1495E+6	4.4859	Inf	-364.8
456.06	1.1500E+6	4.4986	Inf	+354.8
456.22	1.1505E+6	4.4972	Inf	-11.6
456.39	1.1510E+6	4.4845	Inf	+346.1
456.56	1.1515E+6	4.4915	0.0388	-5.6
456.74	1.1520E+6	4.4930	0.0404	+7.7
456.92	1.1525E+6	4.4901	0.0382	+350.7
457.12	1.1530E+6	4.4873	Inf	-3.1
457.29	1.1535E+6	4.4845	0.0384	+0.6
457.45	1.1540E+6	4.4887	0.0365	-6.4
457.64	1.1545E+6	4.4873	Inf	+0.6
457.82	1.1550E+6	4.4859	0.0386	-8.7
458.00	1.1555E+6	4.4915	Inf	+4.4
458.17	1.1560E+6	4.4901	Inf	+349.4
458.33	1.1565E+6	4.4901	Inf	-6.7
458.50	1.1570E+6	4.4887	Inf	-357.1
458.68	1.1575E+6	4.4887	0.0404	+358.1
458.87	1.1580E+6	4.4887	Inf	-359.4
459.03	1.1585E+6	4.4859	Inf	-19.6
459.20	1.1590E+6	4.4901	0.0413	+363.1
459.38	1.1595E+6	4.4930	Inf	+341.0
459.55	1.1600E+6	4.4845	Inf	-356.7
459.71	1.1605E+6	4.4873	0.0382	-9.4
459.88	1.1610E+6	4.4873	Inf	-372.3
460.05	1.1615E+6	4.4901	0.0398	-9.6
460.25	1.1620E+6	4.4802	Inf	-1.7
460.43	1.1625E+6	4.4915	Inf	-359.2
460.61	1.1630E+6	4.4944	Inf	-0.2
460.78	1.1635E+6	4.4873	Inf	+5.7
460.96	1.1640E+6	4.4901	0.0407	+3.4
461.14	1.1645E+6	4.4930	Inf	-6.3
461.31	1.1650E+6	4.4901	Inf	+347.9
461.48	1.1655E+6	4.4915	0.0394	-360.2
461.64	1.1660E+6	4.4930	Inf	-12.8
461.81	1.1665E+6	4.4901	Inf	-13.0
461.98	1.1670E+6	4.4845	Inf	+Inf
462.14	1.1675E+6	4.4859	Inf	-355.6
462.31	1.1680E+6	4.4816	Inf	-363.6
462.51	1.1685E+6	4.4831	0.0392	-8.6
462.68	1.1690E+6	4.4915	0.0398	+4.0
462.86	1.1695E+6	4.4873	Inf	-8.2
463.03	1.1700E+6	4.4887	Inf	-22.8
463.19	1.1705E+6	4.4887	0.0404	-367.8
463.39	1.1710E+6	4.4845	Inf	-27.6
463.56	1.1715E+6	4.4887	Inf	+339.3
463.72	1.1720E+6	4.4831	Inf	-25.5
463.89	1.1725E+6	4.4831	Inf	+352.8
464.06	1.1730E+6	4.4958	0.0406	-361.7
464.26	1.1735E+6	4.4816	0.0394	-8.4
464.46	1.1740E+6	4.4873	Inf	+345.2
464.64	1.1745E+6	4.4887	Inf	-20.7
464.81	1.1750E+6	4.4845	0.0385	-3.6
465.00	1.1755E+6	4.4859	Inf	+359.2
465.17	1.1760E+6	4.4831	0.0368	-4.4
465.37	1.1765E+6	4.4859	Inf	+2.1
465.55	1.1770E+6	4.4788	Inf	-367.0
465.74	1.1775E+6	4.4816	0.0386	+5.7
465.94	1.1780E+6	4.4845	Inf	-367.7
466.12	1.1785E+6	4.4930	0.0390	-0.4
466.30	1.1790E+6	4.4873	Inf	+365.3
466.47	1.1795E+6	4.4816	Inf	+339.9
466.67	1.1800E+6	4.4915	Inf	-21.0
466.85	1.1805E+6	4.4845	0.0411	+361.1
467.03	1.1810E+6	4.4788	Inf	-360.0
467.22	1.1815E+6	4.4901	Inf	-11.7
467.40	1.1820E+6	4.4816	0.0392	+358.5
467.62	1.1825E+6	4.4930	0.0391	-1.1
467.78	1.1830E+6	4.4887	Inf	-26.6
467.95	1.1835E+6	4.4887	Inf	+353.4
468.11	1.1840E+6	4.4901	Inf	+365.1
468.26	1.1845E+6	4.4816	Inf	+345.9
468.46	1.1850E+6	4.4901	0.0386	-4.5
468.65	1.1855E+6	4.4873	0.0397	+1.5
468.83	1.1860E+6	4.4831	0.0382	-3.6
469.03	1.1865E+6	4.4887	Inf	-5.8
469.23	1.1870E+6	4.4944	Inf	-366.2
469.39	1.1875E+6	4.4901	Inf	-1.9
469.55	1.1880E+6	4.4845	0.0395	-11.4
469.71	1.1885E+6	4.4887	0.0414	-367.5
469.89	1.1890E+6	4.4831	Inf	+339.0
470.09	1.1895E+6	4.4901	0.0374	-3.6
470.29	1.1900E+6	4.4788	Inf	-363.2
470.48	1.1905E+6	4.4873	0.0386	-6.6
470.68	1.1910E+6	4.4802	Inf	-24.9
470.86	1.1915E+6	4.4845	Inf	+349.5
471.06	1.1920E+6	4.4887	0.0378	+1.1
471.23	1.1925E+6	4.4816	0.0372	-6.0
471.42	1.1930E+6	4.4930	Inf	+2.8
471.61	1.1935E+6	4.4788	Inf	-353.6
471.79	1.1940E+6	4.4930	0.0408	+365.8
472.01	1.1945E+6	4.4930	Inf	+338.5
472.17	1.1950E+6	4.4845	0.0388	-1.5
472.36	1.1955E+6	4.4760	0.0393	-1.5
472.56	1.1960E+6	4.4887	Inf	-360.4
472.75	1.1965E+6	4.4746	0.0384	+0.9
472.95	1.1970E+6	4.4816	Inf	-355.7
473.12	1.1975E+6	4.4915	0.0388	-3.4
473.30	1.1980E+6	4.4802	Inf	+333.7
473.49	1.1985E+6	4.4831	Inf	-368.6
473.67	1.1990E+6	4.4859	Inf	+3.9
473.85	1.1995E+6	4.4816	0.0386	-5.0
474.04	1.2000E+6	4.4816	Inf	-9.3
474.20	1.2005E+6	4.4915	0.0386	-3.2
474.37	1.2010E+6	4.4816	Inf	+363.2
474.57	1.2015E+6	4.4845	0.0390	-4.8
474.77	1.2020E+6	4.4873	Inf	-2.8
474.93	1.2025E+6	4.4802	Inf	+Inf
475.12	1.2030E+6	4.4831	0.0377	+4.3
475.30	1.2035E+6	4.4831	0.0382	-3.0
475.48	1.2040E+6	4.4873	Inf	-368.9
475.67	1.2045E+6	4.4816	Inf	+343.9
475.83	1.2050E+6	4.4845	0.0378	-3.3
476.01	1.2055E+6	4.4816	0.0379	-5.2
476.20	1.2060E+6	4.4816	Inf	-14.5
476.36	1.2065E+6	4.4845	Inf	+347.4
476.55	1.2070E+6	4.4760	Inf	-23.2
476.73	1.2075E+6	4.4802	0.0396	-8.7
476.91	1.2080E+6	4.4816	Inf	+354.6
477.10	1.2085E+6	4.4831	Inf	-11.1
477.26	1.2090E+6	4.4887	0.0387	+1.7
477.46	1.2095E+6	4.4746	0.0381	+355.6
477.64	1.2100E+6	4.4802	Inf	+343.2
477.81	1.2105E+6	4.4901	Inf	-1.1
478.01	1.2110E+6	4.4732	Inf	-4.8
478.19	1.2115E+6	4.4831	Inf	-21.0
478.36	1.2120E+6	4.4859	Inf	-2.0
478.54	1.2125E+6	4.4788	0.0399	+4.4
478.74	1.2130E+6	4.4901	Inf	+357.4
478.94	1.2135E+6	4.4831	0.0396	+354.8
479.12	1.2140E+6	4.4873	Inf	+5.5
479.31	1.2145E+6	4.4760	Inf	-356.3
479.49	1.2150E+6	4.4816	Inf	+351.2
479.66	1.2155E+6	4.4816	0.0388	+1.3
479.84	1.2160E+6	4.4831	0.0395	+1.3
480.02	1.2165E+6	4.4845	Inf	+351.0
480.19	1.2170E+6	4.4788	0.0376	-4.8
480.39	1.2175E+6	4.4816	Inf	+Inf
480.55	1.2180E+6	4.4845	Inf	-358.0
480.75	1.2185E+6	4.4788	0.0388	-0.2
480.92	1.2190E+6	4.4802	0.0376	-4.4
481.07	1.2195E+6	4.4760	0.0392	+362.6
481.24	1.2200E+6	4.4859	Inf	-3.5
481.42	1.2205E+6	4.4717	0.0380	-1.8
481.64	1.2210E+6	4.4732	Inf	-16.0
481.80	1.2215E+6	4.4816	0.0381	-4.6
481.97	1.2220E+6	4.4816	Inf	-354.5
482.13	1.2225E+6	4.4887	Inf	-367.5
482.32	1.2230E+6	4.4717	Inf	-367.5
482.52	1.2235E+6	4.4831	Inf	+357.6
482.68	1.2240E+6	4.4774	0.0404	+0.0
482.85	1.2245E+6	4.4816	Inf	-362.9
483.01	1.2250E+6	4.4746	Inf	+347.2
483.17	1.2255E+6	4.4859	Inf	+338.6
483.37	1.2260E+6	4.4717	0.0396	+1.3
483.57	1.2265E+6	4.4802	0.0381	-2.4
483.75	1.2270E+6	4.4802	Inf	-3.8
483.91	1.2275E+6	4.4788	Inf	+0.4
484.08	1.2280E+6	4.4774	0.0378	-7.1
484.25	1.2285E+6	4.4774	Inf	+5.5
484.41	1.2290E+6	4.4816	Inf	-14.2
484.58	1.2295E+6	4.4788	0.0393	-3.8
484.75	1.2300E+6	4.4788	Inf	-7.1
484.91	1.2305E+6	4.4788	Inf	+352.2
485.10	1.2310E+6	4.4831	0.0394	+357.6
485.26	1.2315E+6	4.4831	Inf	+335.2
485.43	1.2320E+6	4.4760	0.0368	-9.7
485.61	1.2325E+6	4.4760	Inf	-366.0
485.78	1.2330E+6	4.4831	0.0372	-8.7
485.96	1.2335E+6	4.4831	Inf	+359.8
486.13	1.2340E+6	4.4845	Inf	+361.3
486.31	1.2345E+6	4.4760	0.0380	-11.6
486.51	1.2350E+6	4.4746	Inf	+364.9
486.68	1.2355E+6	4.4732	0.0385	-7.8
486.86	1.2360E+6	4.4873	0.0388	-0.7
487.04	1.2365E+6	4.4746	Inf	-363.3
487.21	1.2370E+6	4.4816	Inf	-7.3
487.36	1.2375E+6	4.4816	Inf	-360.4
487.52	1.2380E+6	4.4760	0.0385	+352.2
487.69	1.2385E+6	4.4816	Inf	+345.5
487.86	1.2390E+6	4.4845	Inf	-351.3
488.04	1.2395E+6	4.4788	Inf	+348.6
488.22	1.2400E+6	4.4802	Inf	+8.0
488.39	1.2405E+6	4.4788	Inf	+Inf
488.57	1.2410E+6	4.4816	Inf	-14.3
488.74	1.2415E+6	4.4831	Inf	+360.0
488.89	1.2420E+6	4.4831	Inf	+Inf
489.05	1.2425E+6	4.4717	0.0388	-2.0
489.20	1.2430E+6	4.4802	Inf	+353.3
489.37	1.2435E+6	4.4802	Inf	-20.6
489.55	1.2440E+6	4.4717	Inf	+357.8
489.72	1.2445E+6	4.4816	Inf	-360.2
489.87	1.2450E+6	4.4760	Inf	+365.6
490.02	1.2455E+6	4.4802	Inf	+357.8
490.18	1.2460E+6	4.4845	Inf	+350.2
490.37	1.2465E+6	4.4746	Inf	+359.1
490.53	1.2470E+6	4.4873	0.0364	-7.4
490.72	1.2475E+6	4.4802	Inf	-23.2
490.88	1.2480E+6	4.4802	Inf	-358.2
491.03	1.2485E+6	4.4774	Inf	+354.8
491.20	1.2490E+6	4.4802	Inf	-16.2
491.36	1.2495E+6	4.4802	Inf	-0.4
491.51	1.2500E+6	4.4746	Inf	+362.7
491.68	1.2505E+6	4.4774	Inf	+8.1
