#date: 15.10.2020	time: 15:32:26
#t (s)	f (Hz)	A1 (V)	A2 (V)	phase (deg)
13.64	1.0000E+1	1.5213	Inf	+Inf
13.89	5.1000E+2	2.3725	0.0240	+121.9
14.13	1.0100E+3	2.3749	Inf	+Inf
14.36	1.5100E+3	2.3917	Inf	+Inf
14.86	2.0100E+3	2.4100	Inf	+Inf
15.07	2.5100E+3	2.4293	0.0690	+157.0
15.38	3.0100E+3	2.4520	0.0762	+163.9
15.61	3.5100E+3	2.4744	0.0795	+176.0
15.82	4.0100E+3	2.5006	0.0815	+168.5
16.05	4.5100E+3	2.5264	0.0829	+180.0
16.27	5.0100E+3	2.5531	0.0837	+176.9
16.47	5.5100E+3	2.5816	0.0844	-175.8
16.70	6.0100E+3	2.6109	0.0849	-173.9
16.90	6.5100E+3	2.6413	0.0855	-170.5
17.12	7.0100E+3	2.6740	0.0853	-165.2
17.32	7.5100E+3	2.7054	0.0855	-163.3
17.52	8.0100E+3	2.7434	0.0853	-161.3
17.72	8.5100E+3	2.7829	0.0851	-160.4
17.93	9.0100E+3	2.8216	0.0841	-153.1
18.15	9.5100E+3	2.8617	0.0839	-156.1
18.35	1.0010E+4	2.9022	0.0835	-152.9
18.55	1.0510E+4	2.9424	0.0830	-152.9
18.77	1.1010E+4	2.9795	0.0827	-150.8
18.98	1.1510E+4	3.0160	0.0818	-146.6
19.20	1.2010E+4	3.0496	0.0814	-149.1
19.40	1.2510E+4	3.0820	0.0801	-146.0
19.63	1.3010E+4	3.1152	0.0797	-144.5
19.86	1.3510E+4	3.1454	0.0790	-143.7
20.06	1.4010E+4	3.1797	0.0790	-137.1
20.26	1.4510E+4	3.2139	0.0778	-144.3
20.50	1.5010E+4	3.2496	0.0767	-141.8
20.73	1.5510E+4	3.2800	0.0761	-142.5
20.93	1.6010E+4	3.3128	0.0754	-139.4
21.14	1.6510E+4	3.3421	0.0748	-133.9
21.36	1.7010E+4	3.3691	0.0739	-138.0
21.58	1.7510E+4	3.3988	0.0734	-137.6
21.77	1.8010E+4	3.4220	0.0723	-134.4
21.99	1.8510E+4	3.4446	0.0711	-133.5
22.23	1.9010E+4	3.4691	0.0703	-137.6
22.43	1.9510E+4	3.4931	0.0702	-129.7
22.61	2.0010E+4	3.5227	0.0687	-136.3
22.82	2.0510E+4	3.5480	0.0688	-126.2
23.01	2.1010E+4	3.5746	0.0674	-128.9
23.22	2.1510E+4	3.5992	0.0671	-121.1
23.46	2.2010E+4	3.6275	0.0661	-134.2
23.66	2.2510E+4	3.6480	0.0655	-137.2
23.89	2.3010E+4	3.6707	0.0650	-132.9
24.11	2.3510E+4	3.6921	0.0640	-120.3
24.34	2.4010E+4	3.7133	0.0635	-132.8
24.52	2.4510E+4	3.7325	0.0625	-131.0
24.74	2.5010E+4	3.7491	0.0617	-124.4
24.94	2.5510E+4	3.7663	0.0612	-120.6
25.14	2.6010E+4	3.7840	0.0608	-122.7
25.34	2.6510E+4	3.8021	0.0597	-130.2
25.54	2.7010E+4	3.8182	0.0597	-128.9
25.73	2.7510E+4	3.8358	0.0583	-122.3
25.97	2.8010E+4	3.8542	0.0572	-127.4
26.17	2.8510E+4	3.8697	0.0568	-129.2
26.38	2.9010E+4	3.8863	0.0564	-125.3
26.58	2.9510E+4	3.9012	0.0558	-125.6
26.82	3.0010E+4	3.9155	0.0554	-123.6
27.00	3.0510E+4	3.9287	0.0549	-129.9
27.21	3.1010E+4	3.9440	0.0550	-111.8
27.41	3.1510E+4	3.9565	0.0532	-125.3
27.65	3.2010E+4	3.9694	0.0530	-129.4
27.83	3.2510E+4	3.9845	0.0527	-133.1
28.05	3.3010E+4	3.9969	0.0522	-126.1
28.23	3.3510E+4	4.0082	0.0514	-117.7
28.46	3.4010E+4	4.0256	0.0506	-126.2
28.64	3.4510E+4	4.0352	0.0500	-123.7
28.88	3.5010E+4	4.0468	0.0501	-135.7
29.06	3.5510E+4	4.0578	0.0495	-125.0
29.24	3.6010E+4	4.0711	0.0495	-118.7
29.44	3.6510E+4	4.0801	0.0493	-133.2
29.64	3.7010E+4	4.0891	0.0476	-129.1
29.88	3.7510E+4	4.0992	0.0474	-124.5
30.09	3.8010E+4	4.1073	0.0467	-123.8
30.27	3.8510E+4	4.1180	0.0464	-132.0
30.47	3.9010E+4	4.1282	0.0465	-128.1
30.66	3.9510E+4	4.1360	0.0456	-132.0
30.86	4.0010E+4	4.1459	0.0452	-125.4
31.06	4.0510E+4	4.1527	0.0462	-133.6
31.26	4.1010E+4	4.1625	0.0456	-128.1
31.47	4.1510E+4	4.1702	0.0440	-132.9
31.67	4.2010E+4	4.1753	0.0431	-121.8
31.89	4.2510E+4	4.1862	0.0432	-123.5
32.07	4.3010E+4	4.1916	0.0426	-126.8
32.29	4.3510E+4	4.1974	0.0426	-120.2
32.47	4.4010E+4	4.1988	0.0418	-135.6
32.65	4.4510E+4	4.2084	Inf	+229.9
32.85	4.5010E+4	4.2159	0.0415	-131.6
33.07	4.5510E+4	4.2216	0.0411	-121.9
33.27	4.6010E+4	4.2299	0.0401	-130.5
33.49	4.6510E+4	4.2326	0.0405	-130.1
33.68	4.7010E+4	4.2380	0.0411	-125.0
33.87	4.7510E+4	4.2439	0.0397	-115.6
34.07	4.8010E+4	4.2501	0.0397	-123.1
34.25	4.8510E+4	4.2503	0.0403	-128.9
34.45	4.9010E+4	4.2593	0.0396	-129.1
34.68	4.9510E+4	4.2643	0.0386	-120.0
34.88	5.0010E+4	4.2704	0.0380	-134.8
35.06	5.0510E+4	4.2747	0.0386	-126.5
35.25	5.1010E+4	4.2803	0.0378	-134.9
35.43	5.1510E+4	4.2831	0.0390	-131.6
35.63	5.2010E+4	4.2879	0.0377	-116.4
35.86	5.2510E+4	4.2919	0.0366	-125.6
36.08	5.3010E+4	4.2940	0.0372	-127.4
36.26	5.3510E+4	4.2984	0.0364	-131.9
36.45	5.4010E+4	4.2994	0.0376	-113.0
36.65	5.4510E+4	4.3049	0.0367	-134.2
36.86	5.5010E+4	4.3112	0.0365	-117.1
37.04	5.5510E+4	4.3203	0.0368	-106.9
37.24	5.6010E+4	4.3170	0.0376	-129.5
37.44	5.6510E+4	4.3237	0.0353	-127.5
37.64	5.7010E+4	4.3247	0.0350	-128.1
37.83	5.7510E+4	4.3299	0.0345	-116.8
38.02	5.8010E+4	4.3289	0.0355	-138.1
38.22	5.8510E+4	4.3350	0.0344	-127.2
38.42	5.9010E+4	4.3387	0.0359	-106.2
38.64	5.9510E+4	4.3406	0.0392	+247.7
38.84	6.0010E+4	4.3435	0.0345	-121.2
39.06	6.0510E+4	4.3457	0.0337	+220.5
39.24	6.1010E+4	4.3479	0.0334	-139.1
39.42	6.1510E+4	4.3494	0.0331	-130.4
39.62	6.2010E+4	4.3552	0.0337	-128.5
39.82	6.2510E+4	4.3586	0.0341	-127.3
40.01	6.3010E+4	4.3592	0.0325	-137.2
40.22	6.3510E+4	4.3631	0.0362	-141.6
40.42	6.4010E+4	4.3662	0.0334	-120.8
40.64	6.4510E+4	4.3686	0.0327	-129.2
40.85	6.5010E+4	4.3719	0.0323	-135.6
41.05	6.5510E+4	4.3696	0.0327	-122.5
41.25	6.6010E+4	4.3740	0.0320	-143.8
41.45	6.6510E+4	4.3712	0.0328	-134.7
41.63	6.7010E+4	4.3795	0.0328	-126.2
41.82	6.7510E+4	4.3800	0.0321	-133.2
42.00	6.8010E+4	4.3826	0.0316	-123.1
42.22	6.8510E+4	4.3852	0.0311	-130.9
42.40	6.9010E+4	4.3863	0.0308	-133.7
42.60	6.9510E+4	4.3880	0.0310	-141.4
42.77	7.0010E+4	4.3911	0.0324	-135.5
42.96	7.0510E+4	4.3903	0.0306	-131.6
43.16	7.1010E+4	4.3899	0.0317	-126.6
43.35	7.1510E+4	4.4013	0.0307	-146.8
43.55	7.2010E+4	4.3935	0.0303	-139.2
43.76	7.2510E+4	4.3993	0.0304	-142.4
43.98	7.3010E+4	4.3975	0.0305	-129.3
44.20	7.3510E+4	4.4060	Inf	+223.1
44.41	7.4010E+4	4.3988	0.0304	-104.0
44.63	7.4510E+4	4.4043	0.0305	-139.1
44.83	7.5010E+4	4.4032	0.0322	-136.7
45.03	7.5510E+4	4.4050	0.0324	+245.1
45.21	7.6010E+4	4.4053	0.0301	+211.4
45.41	7.6510E+4	4.4104	0.0292	-133.1
45.59	7.7010E+4	4.4129	0.0293	-129.2
45.77	7.7510E+4	4.4123	0.0320	-136.3
45.97	7.8010E+4	4.4112	0.0296	-141.5
46.17	7.8510E+4	4.4140	0.0292	-148.0
46.36	7.9010E+4	4.4191	0.0290	-146.5
46.54	7.9510E+4	4.4204	0.0300	-146.0
46.72	8.0010E+4	4.4218	0.0294	-141.8
46.91	8.0510E+4	4.4256	0.0291	-131.7
47.09	8.1010E+4	4.4286	0.0285	-136.5
47.32	8.1510E+4	4.4217	0.0302	-128.6
47.54	8.2010E+4	4.4259	0.0287	-137.1
47.75	8.2510E+4	4.4280	Inf	-130.4
47.95	8.3010E+4	4.4258	0.0338	-112.3
48.19	8.3510E+4	4.4295	0.0288	-155.2
48.42	8.4010E+4	4.4324	0.0293	-134.8
48.62	8.4510E+4	4.4321	0.0283	-153.5
48.82	8.5010E+4	4.4327	0.0285	-128.4
49.00	8.5510E+4	4.4345	0.0280	-150.5
49.20	8.6010E+4	4.4358	0.0319	+232.8
49.40	8.6510E+4	4.4323	0.0285	-149.6
49.60	8.7010E+4	4.4364	0.0281	-138.9
49.80	8.7510E+4	4.4379	0.0285	-147.5
49.98	8.8010E+4	4.4377	0.0281	-149.0
50.17	8.8510E+4	4.4391	0.0286	-145.5
50.35	8.9010E+4	4.4402	0.0293	-129.6
50.57	8.9510E+4	4.4411	0.0307	-142.8
50.77	9.0010E+4	4.4428	0.0320	-115.9
50.96	9.0510E+4	4.4461	0.0284	-156.0
51.18	9.1010E+4	4.4439	Inf	+225.6
51.36	9.1510E+4	4.4463	0.0273	+215.1
51.56	9.2010E+4	4.4502	0.0283	+210.6
51.76	9.2510E+4	4.4515	0.0278	-146.9
51.95	9.3010E+4	4.4494	0.0296	+245.9
52.15	9.3510E+4	4.4524	0.0274	-153.2
52.35	9.4010E+4	4.4502	0.0310	-139.8
52.54	9.4510E+4	4.4524	0.0289	-124.0
52.76	9.5010E+4	4.4560	0.0285	-158.0
52.98	9.5510E+4	4.4512	Inf	-144.1
53.19	9.6010E+4	4.4569	0.0276	-146.7
53.41	9.6510E+4	4.4541	0.0274	-141.5
53.61	9.7010E+4	4.4576	0.0274	-146.6
53.83	9.7510E+4	4.4517	0.0273	-153.3
54.02	9.8010E+4	4.4623	0.0270	-145.0
54.24	9.8510E+4	4.4558	0.0272	-147.3
54.42	9.9010E+4	4.4592	0.0286	-120.7
54.62	9.9510E+4	4.4593	0.0293	-152.3
54.82	1.0001E+5	4.4601	0.0270	-143.2
55.02	1.0051E+5	4.4613	0.0272	-141.9
55.20	1.0101E+5	4.4642	0.0287	-170.0
55.42	1.0151E+5	4.4647	0.0277	-154.7
55.60	1.0201E+5	4.4655	0.0274	-158.5
55.80	1.0251E+5	4.4659	0.0282	-124.3
56.00	1.0301E+5	4.4676	0.0294	-122.3
56.22	1.0351E+5	4.4681	0.0283	-153.3
56.42	1.0401E+5	4.4692	0.0276	-147.9
56.60	1.0451E+5	4.4683	0.0288	-127.2
56.78	1.0501E+5	4.4652	0.0267	+212.8
56.98	1.0551E+5	4.4683	0.0282	-161.4
57.20	1.0601E+5	4.4676	0.0288	+215.9
57.38	1.0651E+5	4.4685	0.0273	-157.2
57.58	1.0701E+5	4.4727	0.0297	-156.0
57.80	1.0751E+5	4.4712	0.0279	-150.7
58.00	1.0801E+5	4.4708	0.0275	-149.5
58.22	1.0851E+5	4.4770	0.0281	-158.5
58.41	1.0901E+5	4.4753	0.0284	-154.9
58.60	1.0951E+5	4.4751	0.0272	-145.9
58.80	1.1001E+5	4.4737	0.0297	-158.1
59.00	1.1051E+5	4.4761	0.0301	-155.9
59.18	1.1101E+5	4.4811	0.0279	-162.4
59.38	1.1151E+5	4.4736	0.0275	-155.9
59.58	1.1201E+5	4.4781	0.0280	-166.3
59.78	1.1251E+5	4.4787	0.0288	-138.5
59.96	1.1301E+5	4.4812	0.0277	-138.3
60.15	1.1351E+5	4.4839	0.0273	-139.7
60.36	1.1401E+5	4.4758	0.0278	-140.9
60.58	1.1451E+5	4.4798	0.0280	+236.4
60.76	1.1501E+5	4.4838	0.0284	-129.7
60.96	1.1551E+5	4.4804	0.0273	-143.2
61.18	1.1601E+5	4.4812	0.0289	-147.5
61.38	1.1651E+5	4.4826	0.0277	-150.0
61.56	1.1701E+5	4.4839	0.0273	-157.5
61.79	1.1751E+5	4.4802	0.0305	-157.0
62.02	1.1801E+5	4.4849	0.0278	-156.2
62.26	1.1851E+5	4.4846	0.0286	-167.9
62.44	1.1901E+5	4.4792	0.0297	-153.8
62.67	1.1951E+5	4.4887	0.0283	-140.9
62.91	1.2001E+5	4.4848	0.0279	-155.5
63.09	1.2051E+5	4.4836	0.0285	-162.2
63.27	1.2101E+5	4.4814	0.0291	-147.3
63.51	1.2151E+5	4.4881	0.0271	-155.3
63.74	1.2201E+5	4.4857	0.0295	-130.4
63.94	1.2251E+5	4.4857	0.0283	-160.2
64.14	1.2301E+5	4.4884	0.0278	-159.3
64.32	1.2351E+5	4.4843	0.0314	-159.6
64.52	1.2401E+5	4.4894	0.0280	-157.4
64.72	1.2451E+5	4.4848	0.0277	-153.2
64.90	1.2501E+5	4.4855	0.0278	-157.4
65.08	1.2551E+5	4.4945	0.0282	-157.2
65.27	1.2601E+5	4.4906	0.0277	-159.2
65.45	1.2651E+5	4.4913	0.0289	-140.8
65.63	1.2701E+5	4.4894	0.0284	-157.4
65.82	1.2751E+5	4.4906	0.0277	-149.8
66.00	1.2801E+5	4.4932	0.0288	-145.5
66.18	1.2851E+5	4.4920	Inf	+Inf
66.36	1.2901E+5	4.4928	Inf	-133.0
66.55	1.2951E+5	4.4908	0.0295	-133.0
66.75	1.3001E+5	4.4932	Inf	-109.2
66.93	1.3051E+5	4.4966	0.0295	-139.1
67.11	1.3101E+5	4.4955	0.0275	-171.6
67.31	1.3151E+5	4.4972	0.0289	-153.7
67.51	1.3201E+5	4.4975	0.0301	-146.0
67.71	1.3251E+5	4.4990	Inf	+182.5
67.89	1.3301E+5	4.5033	0.0282	-156.9
68.09	1.3351E+5	4.4986	0.0289	-151.7
68.28	1.3401E+5	4.4983	0.0294	-178.9
68.48	1.3451E+5	4.4985	0.0298	-176.8
68.66	1.3501E+5	4.5012	0.0291	-151.9
68.84	1.3551E+5	4.5016	0.0300	-142.6
69.03	1.3601E+5	4.5060	0.0289	-156.1
69.22	1.3651E+5	4.4961	0.0289	-166.3
69.41	1.3701E+5	4.5020	0.0290	-142.6
69.61	1.3751E+5	4.5006	0.0289	-151.5
69.81	1.3801E+5	4.5013	0.0323	-159.0
70.01	1.3851E+5	4.4952	Inf	+Inf
70.19	1.3901E+5	4.5003	0.0303	-167.7
70.39	1.3951E+5	4.5012	0.0287	-160.6
70.59	1.4001E+5	4.5006	0.0288	-156.3
70.77	1.4051E+5	4.5020	0.0294	-163.6
70.97	1.4101E+5	4.5019	0.0297	-170.5
71.16	1.4151E+5	4.5006	0.0304	+180.6
71.34	1.4201E+5	4.5077	0.0290	-179.6
71.52	1.4251E+5	4.5072	0.0304	-167.5
71.71	1.4301E+5	4.5044	0.0306	-170.0
71.90	1.4351E+5	4.5055	0.0297	+216.7
72.10	1.4401E+5	4.5014	0.0324	-145.6
72.32	1.4451E+5	4.5064	0.0317	-169.0
72.54	1.4501E+5	4.5068	0.0307	-166.1
72.72	1.4551E+5	4.5118	0.0336	-141.2
72.93	1.4601E+5	4.5071	0.0304	-171.7
73.15	1.4651E+5	4.5058	0.0307	-148.3
73.33	1.4701E+5	4.5063	0.0298	-163.7
73.53	1.4751E+5	4.5105	0.0308	-174.7
73.73	1.4801E+5	4.5101	0.0300	-169.1
73.95	1.4851E+5	4.5084	0.0318	-173.3
74.15	1.4901E+5	4.5108	0.0319	-153.5
74.35	1.4951E+5	4.5102	Inf	+Inf
74.53	1.5001E+5	4.5092	0.0312	-174.6
74.75	1.5051E+5	4.5078	0.0304	-157.8
74.95	1.5101E+5	4.5150	0.0306	-170.4
75.18	1.5151E+5	4.5113	0.0314	-150.1
75.38	1.5201E+5	4.5128	0.0329	-146.7
75.61	1.5251E+5	4.5142	0.0306	-172.0
75.83	1.5301E+5	4.5099	0.0335	-175.6
76.04	1.5351E+5	4.5133	0.0313	-153.2
76.26	1.5401E+5	4.5085	0.0327	+177.6
76.49	1.5451E+5	4.5161	0.0310	-157.5
76.71	1.5501E+5	4.5128	0.0312	-163.4
76.89	1.5551E+5	4.5156	0.0308	-171.3
77.08	1.5601E+5	4.5156	0.0334	-179.6
77.28	1.5651E+5	4.5128	0.0348	-140.7
77.47	1.5701E+5	4.5142	Inf	+Inf
77.66	1.5751E+5	4.5142	0.0374	+166.8
77.86	1.5801E+5	4.5142	0.0311	-168.3
78.06	1.5851E+5	4.5156	0.0309	+203.4
78.24	1.5901E+5	4.5156	0.0312	-164.2
78.42	1.5951E+5	4.5184	0.0316	-173.1
78.62	1.6001E+5	4.5198	0.0320	-167.5
78.82	1.6051E+5	4.5170	0.0330	-154.5
79.00	1.6101E+5	4.5170	0.0342	-177.5
79.20	1.6151E+5	4.5156	0.0324	+208.4
79.40	1.6201E+5	4.5170	Inf	+Inf
79.59	1.6251E+5	4.5142	0.0333	-164.8
79.79	1.6301E+5	4.5128	0.0323	-163.5
79.98	1.6351E+5	4.5184	0.0318	-178.6
80.19	1.6401E+5	4.5156	0.0335	+214.4
80.39	1.6451E+5	4.5170	0.0323	-173.0
80.58	1.6501E+5	4.5170	0.0324	-166.4
80.77	1.6551E+5	4.5170	Inf	+Inf
80.95	1.6601E+5	4.5184	0.0324	-169.2
81.13	1.6651E+5	4.5184	0.0330	-157.4
81.32	1.6701E+5	4.5184	0.0325	-174.9
81.50	1.6751E+5	4.5227	0.0364	+201.8
81.72	1.6801E+5	4.5227	0.0360	-166.2
81.92	1.6851E+5	4.5212	0.0324	-166.8
82.11	1.6901E+5	4.5170	0.0351	-158.1
82.31	1.6951E+5	4.5212	Inf	+Inf
82.50	1.7001E+5	4.5198	0.0337	-184.3
82.69	1.7051E+5	4.5212	Inf	+Inf
82.88	1.7101E+5	4.5227	Inf	-192.8
83.06	1.7151E+5	4.5212	0.0332	-172.6
83.26	1.7201E+5	4.5241	Inf	+175.6
83.45	1.7251E+5	4.5212	0.0334	-165.7
83.64	1.7301E+5	4.5212	0.0338	-183.1
83.83	1.7351E+5	4.5212	0.0336	+205.1
84.01	1.7401E+5	4.5184	0.0338	+197.3
84.19	1.7451E+5	4.5255	0.0337	-158.4
84.38	1.7501E+5	4.5227	0.0335	-166.5
84.56	1.7551E+5	4.5269	0.0373	-179.6
84.76	1.7601E+5	4.5255	0.0344	+215.1
84.96	1.7651E+5	4.5227	0.0341	-163.6
85.14	1.7701E+5	4.5227	Inf	-147.3
85.32	1.7751E+5	4.5255	Inf	+188.5
85.51	1.7801E+5	4.5241	0.0349	-171.0
85.71	1.7851E+5	4.5227	Inf	+Inf
85.89	1.7901E+5	4.5241	0.0345	+207.2
86.09	1.7951E+5	4.5241	0.0358	-158.1
86.29	1.8001E+5	4.5297	0.0363	-150.8
86.49	1.8051E+5	4.5241	0.0332	-160.5
86.69	1.8101E+5	4.5227	0.0343	-163.1
86.87	1.8151E+5	4.5283	Inf	-161.1
87.05	1.8201E+5	4.5297	0.0364	-185.1
87.25	1.8251E+5	4.5269	0.0350	+178.2
87.45	1.8301E+5	4.5241	Inf	-152.7
87.64	1.8351E+5	4.5255	0.0364	-176.4
87.83	1.8401E+5	4.5311	Inf	-141.0
88.02	1.8451E+5	4.5297	0.0379	-145.6
88.22	1.8501E+5	4.5283	0.0354	-169.0
88.42	1.8551E+5	4.5297	0.0353	-163.4
88.60	1.8601E+5	4.5269	0.0392	+172.9
88.80	1.8651E+5	4.5241	Inf	+218.1
88.98	1.8701E+5	4.5255	0.0349	-164.7
89.18	1.8751E+5	4.5241	Inf	+Inf
89.35	1.8801E+5	4.5283	0.0367	+175.0
89.53	1.8851E+5	4.5255	0.0362	-163.9
89.72	1.8901E+5	4.5297	0.0368	-150.6
89.90	1.8951E+5	4.5227	0.0347	+186.8
90.10	1.9001E+5	4.5340	0.0376	+208.7
90.31	1.9051E+5	4.5283	Inf	-183.5
90.50	1.9101E+5	4.5311	0.0373	+175.9
90.71	1.9151E+5	4.5283	0.0375	-181.4
90.91	1.9201E+5	4.5340	0.0365	-155.9
91.11	1.9251E+5	4.5297	0.0374	-177.1
91.30	1.9301E+5	4.5297	0.0375	+182.5
91.50	1.9351E+5	4.5297	0.0377	-169.5
91.68	1.9401E+5	4.5311	0.0368	+181.5
91.88	1.9451E+5	4.5297	0.0372	-171.3
92.06	1.9501E+5	4.5326	Inf	+Inf
92.24	1.9551E+5	4.5326	0.0377	-180.5
92.44	1.9601E+5	4.5311	0.0378	-172.1
92.63	1.9651E+5	4.5269	0.0372	-159.6
92.84	1.9701E+5	4.5382	0.0371	-171.7
93.02	1.9751E+5	4.5297	0.0458	+145.2
93.22	1.9801E+5	4.5368	0.0379	-169.0
93.44	1.9851E+5	4.5297	0.0376	-167.8
93.62	1.9901E+5	4.5326	0.0369	-176.4
93.82	1.9951E+5	4.5297	Inf	-159.3
94.01	2.0001E+5	4.5326	0.0382	+197.4
94.21	2.0051E+5	4.5326	0.0373	+188.3
94.40	2.0101E+5	4.5297	Inf	-148.8
94.59	2.0151E+5	4.5311	0.0382	-171.8
94.79	2.0201E+5	4.5340	0.0385	-173.6
94.97	2.0251E+5	4.5340	0.0387	-178.5
95.15	2.0301E+5	4.5368	0.0399	+178.0
95.35	2.0351E+5	4.5340	Inf	+Inf
95.54	2.0401E+5	4.5326	0.0402	+165.3
95.72	2.0451E+5	4.5326	0.0402	+168.8
95.90	2.0501E+5	4.5340	0.0407	+171.3
96.10	2.0551E+5	4.5354	0.0395	-177.7
96.30	2.0601E+5	4.5354	0.0389	-166.4
96.48	2.0651E+5	4.5297	0.0400	-157.3
96.67	2.0701E+5	4.5340	0.0407	+166.2
96.87	2.0751E+5	4.5340	0.0402	-170.3
97.07	2.0801E+5	4.5326	0.0391	-164.0
97.25	2.0851E+5	4.5297	0.0427	-142.1
97.45	2.0901E+5	4.5354	0.0396	+182.2
97.65	2.0951E+5	4.5382	0.0395	-167.2
97.83	2.1001E+5	4.5354	0.0399	-169.5
98.01	2.1051E+5	4.5368	0.0410	+172.4
98.21	2.1101E+5	4.5340	0.0409	+175.6
98.40	2.1151E+5	4.5368	0.0409	-167.8
98.58	2.1201E+5	4.5340	0.0439	-186.4
98.78	2.1251E+5	4.5340	0.0418	-152.0
99.00	2.1301E+5	4.5368	0.0435	+172.9
99.19	2.1351E+5	4.5382	0.0418	+178.0
99.41	2.1401E+5	4.5311	0.0410	+179.9
99.61	2.1451E+5	4.5326	0.0409	-167.8
99.79	2.1501E+5	4.5368	0.0421	-157.9
100.01	2.1551E+5	4.5354	0.0437	-154.4
100.21	2.1601E+5	4.5340	0.0427	-150.8
100.41	2.1651E+5	4.5340	0.0434	-174.2
100.61	2.1701E+5	4.5368	0.0421	-199.8
100.81	2.1751E+5	4.5382	0.0438	-156.8
101.01	2.1801E+5	4.5340	0.0425	-165.4
101.21	2.1851E+5	4.5368	0.0417	-162.3
101.39	2.1901E+5	4.5410	0.0421	-180.1
101.59	2.1951E+5	4.5326	0.0442	-165.5
101.81	2.2001E+5	4.5382	0.0426	-161.0
102.00	2.2051E+5	4.5396	0.0429	-163.7
102.19	2.2101E+5	4.5382	0.0412	-165.7
102.39	2.2151E+5	4.5340	0.0435	-147.0
102.59	2.2201E+5	4.5368	0.0438	-163.1
102.77	2.2251E+5	4.5396	0.0445	+160.0
102.95	2.2301E+5	4.5382	0.0436	-183.0
103.14	2.2351E+5	4.5425	0.0439	-166.3
103.34	2.2401E+5	4.5368	0.0443	+169.4
103.54	2.2451E+5	4.5368	0.0445	-176.1
103.72	2.2501E+5	4.5410	0.0442	-170.0
103.92	2.2551E+5	4.5311	0.0445	-176.6
104.12	2.2601E+5	4.5368	0.0435	-174.7
104.30	2.2651E+5	4.5368	0.0474	+174.7
104.50	2.2701E+5	4.5382	0.0449	-169.7
104.72	2.2751E+5	4.5368	0.0453	+178.3
104.90	2.2801E+5	4.5311	0.0455	+180.3
105.08	2.2851E+5	4.5340	0.0450	+181.4
105.27	2.2901E+5	4.5368	0.0446	+175.4
105.45	2.2951E+5	4.5368	0.0448	-169.6
105.63	2.3001E+5	4.5368	0.0451	-163.0
105.81	2.3051E+5	4.5354	0.0483	-174.8
106.01	2.3101E+5	4.5410	0.0463	-166.6
106.23	2.3151E+5	4.5382	0.0478	-162.3
106.46	2.3201E+5	4.5340	0.0473	-170.7
106.66	2.3251E+5	4.5396	0.0453	-180.9
106.86	2.3301E+5	4.5382	0.0462	+155.7
107.06	2.3351E+5	4.5439	0.0463	+179.8
107.26	2.3401E+5	4.5439	0.0474	-150.6
107.46	2.3451E+5	4.5382	0.0456	-168.8
107.68	2.3501E+5	4.5410	0.0463	-176.1
107.89	2.3551E+5	4.5382	0.0492	-180.4
108.12	2.3601E+5	4.5382	0.0467	-165.3
108.33	2.3651E+5	4.5410	Inf	-159.7
108.53	2.3701E+5	4.5410	0.0469	-165.0
108.71	2.3751E+5	4.5368	0.0482	-165.4
108.94	2.3801E+5	4.5410	0.0477	-168.9
109.14	2.3851E+5	4.5368	Inf	+Inf
109.34	2.3901E+5	4.5410	0.0484	-181.0
109.54	2.3951E+5	4.5354	0.0499	-172.5
109.77	2.4001E+5	4.5410	Inf	+Inf
109.99	2.4051E+5	4.5410	0.0470	-171.6
110.19	2.4101E+5	4.5425	0.0491	-179.4
110.39	2.4151E+5	4.5368	0.0502	-163.5
110.60	2.4201E+5	4.5382	0.0503	-162.9
110.79	2.4251E+5	4.5354	0.0493	-166.1
110.99	2.4301E+5	4.5396	0.0505	-162.8
111.19	2.4351E+5	4.5410	Inf	+Inf
111.39	2.4401E+5	4.5368	0.0503	-175.9
111.58	2.4451E+5	4.5368	0.0494	-171.1
111.78	2.4501E+5	4.5410	0.0500	-171.6
111.98	2.4551E+5	4.5382	0.0497	-171.5
112.18	2.4601E+5	4.5396	0.0496	+178.5
112.37	2.4651E+5	4.5425	0.0516	-171.1
112.60	2.4701E+5	4.5453	0.0503	-154.4
112.78	2.4751E+5	4.5382	0.0522	-163.1
113.00	2.4801E+5	4.5382	0.0523	-184.1
113.18	2.4851E+5	4.5439	0.0521	-172.1
113.38	2.4901E+5	4.5396	0.0515	-174.2
113.60	2.4951E+5	4.5425	0.0510	-162.4
113.80	2.5001E+5	4.5382	0.0509	-161.6
114.00	2.5051E+5	4.5382	0.0511	-162.4
114.18	2.5101E+5	4.5396	0.0529	+180.6
114.38	2.5151E+5	4.5467	Inf	-160.8
114.58	2.5201E+5	4.5453	0.0542	-176.6
114.78	2.5251E+5	4.5410	0.0539	-165.4
114.96	2.5301E+5	4.5410	Inf	+Inf
115.14	2.5351E+5	4.5396	0.0541	-178.0
115.34	2.5401E+5	4.5425	0.0518	-165.8
115.58	2.5451E+5	4.5396	0.0541	-172.9
115.79	2.5501E+5	4.5382	0.0519	-166.8
115.99	2.5551E+5	4.5439	0.0537	+184.4
116.22	2.5601E+5	4.5396	Inf	-180.2
116.42	2.5651E+5	4.5439	0.0546	-178.6
116.66	2.5701E+5	4.5410	0.0563	-178.6
116.86	2.5751E+5	4.5396	Inf	-170.4
117.06	2.5801E+5	4.5410	0.0564	-179.8
117.26	2.5851E+5	4.5425	0.0545	-170.6
117.46	2.5901E+5	4.5453	0.0547	-177.5
117.64	2.5951E+5	4.5396	Inf	-170.4
117.84	2.6001E+5	4.5439	0.0562	-160.7
118.05	2.6051E+5	4.5368	Inf	-174.3
118.25	2.6101E+5	4.5453	0.0551	-163.3
118.47	2.6151E+5	4.5382	0.0577	-179.2
118.69	2.6201E+5	4.5396	0.0556	-165.8
118.89	2.6251E+5	4.5425	0.0566	-166.2
119.10	2.6301E+5	4.5481	0.0576	-171.2
119.30	2.6351E+5	4.5425	0.0588	-161.4
119.50	2.6401E+5	4.5439	0.0573	-172.5
119.70	2.6451E+5	4.5425	Inf	+Inf
119.88	2.6501E+5	4.5425	0.0570	-170.7
120.08	2.6551E+5	4.5368	0.0576	-171.2
120.30	2.6601E+5	4.5467	0.0582	-171.7
120.50	2.6651E+5	4.5439	0.0584	-171.0
120.68	2.6701E+5	4.5368	0.0586	-168.8
120.88	2.6751E+5	4.5425	0.0595	-173.9
121.10	2.6801E+5	4.5396	0.0599	-176.3
121.30	2.6851E+5	4.5453	0.0590	-169.2
121.50	2.6901E+5	4.5396	0.0592	-169.7
121.70	2.6951E+5	4.5425	0.0599	-172.8
121.90	2.7001E+5	4.5425	0.0619	-173.2
122.10	2.7051E+5	4.5439	0.0614	-174.7
122.30	2.7101E+5	4.5453	0.0599	-171.0
122.50	2.7151E+5	4.5439	0.0615	-177.3
122.69	2.7201E+5	4.5439	Inf	+Inf
122.88	2.7251E+5	4.5467	0.0616	-177.6
123.06	2.7301E+5	4.5453	0.0619	-172.8
123.24	2.7351E+5	4.5382	0.0624	-177.5
123.44	2.7401E+5	4.5425	0.0583	-173.1
123.66	2.7451E+5	4.5453	0.0638	+196.6
123.86	2.7501E+5	4.5467	0.0656	-177.0
124.08	2.7551E+5	4.5425	0.0644	+177.0
124.27	2.7601E+5	4.5396	0.0629	-171.1
124.51	2.7651E+5	4.5439	0.0635	-173.4
124.74	2.7701E+5	4.5368	0.0628	-165.7
124.96	2.7751E+5	4.5481	Inf	+187.7
125.16	2.7801E+5	4.5396	0.0654	-176.1
125.37	2.7851E+5	4.5396	0.0687	+178.7
125.57	2.7901E+5	4.5425	0.0641	-171.5
125.79	2.7951E+5	4.5410	0.0660	-175.6
125.99	2.8001E+5	4.5368	Inf	-162.6
126.19	2.8051E+5	4.5453	0.0652	-173.7
126.42	2.8101E+5	4.5425	0.0658	-172.9
126.62	2.8151E+5	4.5439	0.0660	-171.3
126.80	2.8201E+5	4.5481	0.0672	-171.9
127.00	2.8251E+5	4.5481	0.0653	-166.7
127.22	2.8301E+5	4.5425	0.0675	-177.0
127.42	2.8351E+5	4.5425	0.0662	-178.5
127.63	2.8401E+5	4.5509	0.0680	-176.6
127.83	2.8451E+5	4.5467	Inf	-169.2
128.02	2.8501E+5	4.5425	Inf	+177.1
128.20	2.8551E+5	4.5453	0.0670	-167.1
128.40	2.8601E+5	4.5425	0.0696	-175.1
128.60	2.8651E+5	4.5524	0.0710	-173.0
128.80	2.8701E+5	4.5481	0.0703	-166.4
128.98	2.8751E+5	4.5467	0.0697	-174.2
129.18	2.8801E+5	4.5453	Inf	+175.9
129.37	2.8851E+5	4.5453	0.0701	-167.2
129.56	2.8901E+5	4.5425	0.0763	-168.7
129.76	2.8951E+5	4.5396	0.0700	-174.2
129.98	2.9001E+5	4.5410	0.0722	-169.3
130.19	2.9051E+5	4.5481	0.0700	-170.8
130.40	2.9101E+5	4.5410	0.0717	-166.9
130.59	2.9151E+5	4.5410	0.0720	-174.0
130.78	2.9201E+5	4.5495	0.0727	-172.7
130.96	2.9251E+5	4.5439	0.0751	-170.4
131.18	2.9301E+5	4.5410	0.0725	-171.0
131.38	2.9351E+5	4.5481	0.0731	-171.2
131.58	2.9401E+5	4.5439	0.0737	-173.1
131.76	2.9451E+5	4.5481	0.0737	-167.4
131.94	2.9501E+5	4.5410	Inf	-166.0
132.12	2.9551E+5	4.5439	0.0745	+191.1
132.32	2.9601E+5	4.5481	0.0728	-172.1
132.52	2.9651E+5	4.5453	0.0764	-174.6
132.72	2.9701E+5	4.5524	0.0757	-171.0
132.91	2.9751E+5	4.5439	0.0744	-181.8
133.11	2.9801E+5	4.5425	0.0753	-175.4
133.29	2.9851E+5	4.5538	0.0810	-165.9
133.49	2.9901E+5	4.5439	0.0759	+195.0
133.69	2.9951E+5	4.5425	0.0763	-173.1
133.87	3.0001E+5	4.5453	0.0794	-167.9
134.07	3.0051E+5	4.5439	0.0794	-174.9
134.25	3.0101E+5	4.5439	0.0782	-170.5
134.45	3.0151E+5	4.5524	0.0784	-173.5
134.64	3.0201E+5	4.5439	0.0781	-173.8
134.82	3.0251E+5	4.5481	Inf	-167.1
135.00	3.0301E+5	4.5425	0.0797	-183.2
135.20	3.0351E+5	4.5509	0.0797	-177.3
135.38	3.0401E+5	4.5439	0.0797	-169.7
135.57	3.0451E+5	4.5382	0.0804	-167.7
135.78	3.0501E+5	4.5538	0.0801	-171.9
135.98	3.0551E+5	4.5368	0.0813	-171.9
136.18	3.0601E+5	4.5524	0.0806	-174.2
136.38	3.0651E+5	4.5453	0.0896	-168.7
136.58	3.0701E+5	4.5481	0.0826	-171.0
136.78	3.0751E+5	4.5467	0.0828	-182.1
136.98	3.0801E+5	4.5425	0.0829	-170.2
137.18	3.0851E+5	4.5453	0.0814	-171.3
137.38	3.0901E+5	4.5481	0.0842	-171.1
137.58	3.0951E+5	4.5481	0.0842	-169.4
137.76	3.1001E+5	4.5509	0.0838	-173.1
137.96	3.1051E+5	4.5524	0.0847	+196.3
138.16	3.1101E+5	4.5439	0.0842	-175.5
138.34	3.1151E+5	4.5425	0.0842	-174.9
138.53	3.1201E+5	4.5467	0.0867	-171.1
138.73	3.1251E+5	4.5509	0.0865	-174.1
138.91	3.1301E+5	4.5439	0.0875	-169.9
139.11	3.1351E+5	4.5467	0.0875	-176.6
139.29	3.1401E+5	4.5467	0.0877	-170.6
139.48	3.1451E+5	4.5382	0.0920	-169.3
139.69	3.1501E+5	4.5509	0.0889	-175.4
139.93	3.1551E+5	4.5439	0.0914	-174.5
140.12	3.1601E+5	4.5495	0.0918	-172.5
140.31	3.1651E+5	4.5495	0.0919	-169.1
140.49	3.1701E+5	4.5538	0.0920	-166.4
140.67	3.1751E+5	4.5481	0.0929	-166.8
140.87	3.1801E+5	4.5509	0.0925	-169.5
141.07	3.1851E+5	4.5509	0.0920	-174.7
141.25	3.1901E+5	4.5481	0.0933	-169.4
141.46	3.1951E+5	4.5425	0.0921	-173.2
141.66	3.2001E+5	4.5524	0.1057	-163.9
141.85	3.2051E+5	4.5453	0.0952	-169.4
142.05	3.2101E+5	4.5425	0.0921	-177.9
142.25	3.2151E+5	4.5509	0.0936	-174.9
142.45	3.2201E+5	4.5382	0.0957	-175.6
142.69	3.2251E+5	4.5524	0.0978	-168.3
142.90	3.2301E+5	4.5481	0.1001	-169.2
143.12	3.2351E+5	4.5509	0.0973	-169.4
143.32	3.2401E+5	4.5566	0.0976	-171.6
143.50	3.2451E+5	4.5495	0.1018	-166.9
143.72	3.2501E+5	4.5453	0.0995	-170.0
143.92	3.2551E+5	4.5425	0.0988	-172.1
144.10	3.2601E+5	4.5481	0.1068	-170.9
144.30	3.2651E+5	4.5467	0.1031	-164.8
144.50	3.2701E+5	4.5538	0.0994	-175.4
144.70	3.2751E+5	4.5467	0.0970	-176.7
144.90	3.2801E+5	4.5425	0.1024	-171.3
145.10	3.2851E+5	4.5396	0.1040	-173.3
145.31	3.2901E+5	4.5538	0.1051	-169.8
145.51	3.2951E+5	4.5524	0.1053	-168.2
145.70	3.3001E+5	4.5524	0.1053	-166.3
145.88	3.3051E+5	4.5425	0.1046	-172.8
146.06	3.3101E+5	4.5509	0.1072	-172.0
146.26	3.3151E+5	4.5538	0.1098	-167.4
146.46	3.3201E+5	4.5481	0.1083	-171.2
146.66	3.3251E+5	4.5439	0.1101	-166.0
146.86	3.3301E+5	4.5580	0.1101	-169.5
147.04	3.3351E+5	4.5524	0.1115	-169.3
147.24	3.3401E+5	4.5368	0.1079	-172.1
147.46	3.3451E+5	4.5481	0.1167	-167.6
147.69	3.3501E+5	4.5425	0.1111	-171.8
147.89	3.3551E+5	4.5453	0.1133	-174.2
148.09	3.3601E+5	4.5495	0.1140	-172.1
148.31	3.3651E+5	4.5495	0.1147	-168.1
148.49	3.3701E+5	4.5552	0.1174	-166.7
148.69	3.3751E+5	4.5453	0.1163	-167.8
148.89	3.3801E+5	4.5453	0.1201	-164.2
149.09	3.3851E+5	4.5439	0.1201	-163.8
149.27	3.3901E+5	4.5481	0.1181	-170.9
149.47	3.3951E+5	4.5467	0.1126	-173.2
149.67	3.4001E+5	4.5481	0.1152	-170.9
149.87	3.4051E+5	4.5467	0.1160	-172.1
150.07	3.4101E+5	4.5410	0.1189	-168.3
150.27	3.4151E+5	4.5495	0.1207	-167.3
150.47	3.4201E+5	4.5453	0.1189	-167.5
150.67	3.4251E+5	4.5425	0.1183	-174.2
150.85	3.4301E+5	4.5439	0.1260	-165.9
151.07	3.4351E+5	4.5495	0.1223	-172.2
151.27	3.4401E+5	4.5467	0.1242	-166.8
151.47	3.4451E+5	4.5453	0.1260	-168.5
151.67	3.4501E+5	4.5481	0.1238	-169.3
151.87	3.4551E+5	4.5467	0.1247	-171.5
152.05	3.4601E+5	4.5495	0.1228	-170.8
152.25	3.4651E+5	4.5538	0.1261	-167.1
152.45	3.4701E+5	4.5467	0.1327	-168.0
152.65	3.4751E+5	4.5396	0.1327	-164.9
152.85	3.4801E+5	4.5439	0.1298	-168.1
153.06	3.4851E+5	4.5495	0.1307	-169.7
153.25	3.4901E+5	4.5396	0.1324	-166.8
153.46	3.4951E+5	4.5509	0.1336	-170.5
153.66	3.5001E+5	4.5439	0.1360	-169.2
153.86	3.5051E+5	4.5410	0.1362	-169.0
154.03	3.5101E+5	4.5453	0.1391	-167.2
154.23	3.5151E+5	4.5481	0.1352	-166.8
154.43	3.5201E+5	4.5410	0.1413	-165.9
154.63	3.5251E+5	4.5410	0.1438	-163.8
154.83	3.5301E+5	4.5509	0.1366	-173.4
155.03	3.5351E+5	4.5453	0.1541	-174.2
155.23	3.5401E+5	4.5410	0.1473	-166.7
155.43	3.5451E+5	4.5481	0.1479	-167.3
155.63	3.5501E+5	4.5439	0.1439	-168.1
155.82	3.5551E+5	4.5382	0.1471	-169.6
156.04	3.5601E+5	4.5396	0.1441	-169.7
156.24	3.5651E+5	4.5467	0.1481	-167.5
156.46	3.5701E+5	4.5439	0.1444	-165.6
156.66	3.5751E+5	4.5453	0.1522	-166.9
156.85	3.5801E+5	4.5425	0.1493	-166.7
157.06	3.5851E+5	4.5425	0.1564	-164.6
157.25	3.5901E+5	4.5467	0.1480	-165.8
157.46	3.5951E+5	4.5410	0.1466	-170.3
157.66	3.6001E+5	4.5425	0.1530	-168.9
157.85	3.6051E+5	4.5340	0.1563	-165.3
158.07	3.6101E+5	4.5453	0.1540	-165.8
158.29	3.6151E+5	4.5410	0.1565	-165.6
158.49	3.6201E+5	4.5481	0.1576	-166.3
158.67	3.6251E+5	4.5439	0.1587	-165.6
158.87	3.6301E+5	4.5368	0.1636	-165.7
159.08	3.6351E+5	4.5439	0.1594	-167.9
159.30	3.6401E+5	4.5382	0.1588	-168.7
159.52	3.6451E+5	4.5453	0.1627	-167.2
159.73	3.6501E+5	4.5368	0.1635	-165.9
159.95	3.6551E+5	4.5368	0.1668	-164.7
160.15	3.6601E+5	4.5368	0.1842	-164.5
160.35	3.6651E+5	4.5382	0.1773	-163.7
160.55	3.6701E+5	4.5410	0.1738	-168.0
160.76	3.6751E+5	4.5340	0.1784	-166.6
160.98	3.6801E+5	4.5396	0.1713	-166.4
161.18	3.6851E+5	4.5396	0.1704	-165.5
161.38	3.6901E+5	4.5410	0.1699	-165.5
161.58	3.6951E+5	4.5368	0.1802	-167.9
161.81	3.7001E+5	4.5382	0.1856	-161.6
162.01	3.7051E+5	4.5368	0.1831	-165.5
162.21	3.7101E+5	4.5425	0.1850	-164.4
162.43	3.7151E+5	4.5283	0.1814	-168.4
162.62	3.7201E+5	4.5340	0.1902	-163.0
162.83	3.7251E+5	4.5382	0.1907	-162.4
163.02	3.7301E+5	4.5326	0.1853	-167.0
163.21	3.7351E+5	4.5311	0.1953	-162.7
163.41	3.7401E+5	4.5354	0.1944	-162.8
163.61	3.7451E+5	4.5340	0.1959	-164.9
163.81	3.7501E+5	4.5354	0.1952	-163.9
164.01	3.7551E+5	4.5368	0.1944	-162.7
164.21	3.7601E+5	4.5354	0.2021	-162.6
164.41	3.7651E+5	4.5340	0.1970	-163.4
164.61	3.7701E+5	4.5326	0.2023	-164.5
164.81	3.7751E+5	4.5326	0.2055	-162.4
165.00	3.7801E+5	4.5255	0.2065	-163.0
165.20	3.7851E+5	4.5297	0.2109	-165.2
165.39	3.7901E+5	4.5396	0.2115	-163.2
165.59	3.7951E+5	4.5297	0.2153	-160.7
165.79	3.8001E+5	4.5382	0.2168	-158.5
165.99	3.8051E+5	4.5297	0.2188	-163.9
166.19	3.8101E+5	4.5283	0.2145	-161.9
166.38	3.8151E+5	4.5297	0.2240	-162.5
166.59	3.8201E+5	4.5255	0.2186	-164.0
166.78	3.8251E+5	4.5297	0.2325	-162.5
166.98	3.8301E+5	4.5326	0.2332	-160.9
167.18	3.8351E+5	4.5269	0.2292	-161.1
167.38	3.8401E+5	4.5269	0.2228	-161.5
167.58	3.8451E+5	4.5311	0.2364	-160.7
167.76	3.8501E+5	4.5297	0.2397	-157.5
167.95	3.8551E+5	4.5283	0.2407	-159.0
168.13	3.8601E+5	4.5269	0.2409	-158.4
168.31	3.8651E+5	4.5269	0.2429	-158.8
168.51	3.8701E+5	4.5255	0.2443	-159.0
168.71	3.8751E+5	4.5255	0.2430	-161.8
168.91	3.8801E+5	4.5297	0.2576	-157.1
169.11	3.8851E+5	4.5297	0.2521	-157.2
169.31	3.8901E+5	4.5269	0.2585	-158.4
169.51	3.8951E+5	4.5297	0.2622	-158.4
169.71	3.9001E+5	4.5283	0.2682	-158.2
169.91	3.9051E+5	4.5283	0.2670	-158.1
170.11	3.9101E+5	4.5283	0.2741	-157.3
170.31	3.9151E+5	4.5255	0.2723	-157.3
170.51	3.9201E+5	4.5227	0.2761	-155.9
170.71	3.9251E+5	4.5269	0.2850	-155.3
170.91	3.9301E+5	4.5311	0.2924	-154.6
171.11	3.9351E+5	4.5212	0.2882	-157.9
171.31	3.9401E+5	4.5227	0.2840	-157.1
171.51	3.9451E+5	4.5227	0.3019	-153.2
171.71	3.9501E+5	4.5241	0.2913	-152.1
171.91	3.9551E+5	4.5212	0.3048	-156.3
172.11	3.9601E+5	4.5311	0.3133	-153.7
172.31	3.9651E+5	4.5283	0.3150	-153.8
172.49	3.9701E+5	4.5283	0.3095	-155.5
172.69	3.9751E+5	4.5227	0.3092	-153.2
172.87	3.9801E+5	4.5283	0.3086	-155.6
173.05	3.9851E+5	4.5255	0.3243	-153.5
173.25	3.9901E+5	4.5255	0.3322	-152.7
173.45	3.9951E+5	4.5269	0.3313	-152.8
173.64	4.0001E+5	4.5241	0.3407	-153.4
173.84	4.0051E+5	4.5241	0.3394	-151.2
174.02	4.0101E+5	4.5255	0.3502	-147.2
174.22	4.0151E+5	4.5227	0.3510	-149.2
174.40	4.0201E+5	4.5241	0.3599	-149.7
174.60	4.0251E+5	4.5241	0.3652	-147.0
174.80	4.0301E+5	4.5283	0.3640	-147.9
174.98	4.0351E+5	4.5269	0.3693	-148.6
175.18	4.0401E+5	4.5269	0.3700	-148.2
175.37	4.0451E+5	4.5227	0.3794	-146.4
175.57	4.0501E+5	4.5184	0.3884	-146.8
175.76	4.0551E+5	4.5255	0.3893	-148.1
175.97	4.0601E+5	4.5198	0.3886	-146.4
176.16	4.0651E+5	4.5283	0.4135	-146.0
176.37	4.0701E+5	4.5227	0.4099	-144.7
176.56	4.0751E+5	4.5269	0.4219	-143.4
176.76	4.0801E+5	4.5311	0.4198	-142.6
176.96	4.0851E+5	4.5227	0.4344	-142.6
177.16	4.0901E+5	4.5241	0.4279	-138.4
177.36	4.0951E+5	4.5311	0.4365	-142.8
177.56	4.1001E+5	4.5241	0.4405	-139.9
177.76	4.1051E+5	4.5269	0.4565	-139.6
177.96	4.1101E+5	4.5311	0.4599	-137.6
178.16	4.1151E+5	4.5283	0.4639	-138.4
178.36	4.1201E+5	4.5255	0.4755	-137.9
178.56	4.1251E+5	4.5311	0.4824	-134.9
178.76	4.1301E+5	4.5269	0.4984	-134.5
178.96	4.1351E+5	4.5283	0.4989	-136.2
179.14	4.1401E+5	4.5340	0.5013	-133.4
179.34	4.1451E+5	4.5311	0.5128	-134.1
179.54	4.1501E+5	4.5283	0.5254	-131.8
179.74	4.1551E+5	4.5269	0.5268	-131.4
179.92	4.1601E+5	4.5297	0.5380	-132.1
180.12	4.1651E+5	4.5269	0.5404	-130.2
180.32	4.1701E+5	4.5269	0.5481	-131.1
180.52	4.1751E+5	4.5269	0.5596	-126.3
180.72	4.1801E+5	4.5311	0.5572	-125.5
180.92	4.1851E+5	4.5283	0.5726	-126.4
181.12	4.1901E+5	4.5255	0.5999	-125.5
181.32	4.1951E+5	4.5311	0.5976	-123.4
181.52	4.2001E+5	4.5227	0.6030	-122.7
181.72	4.2051E+5	4.5255	0.6122	-121.4
181.92	4.2101E+5	4.5311	0.6232	-119.9
182.12	4.2151E+5	4.5255	0.6382	-119.5
182.32	4.2201E+5	4.5297	0.6339	-116.9
182.52	4.2251E+5	4.5269	0.6527	-114.5
182.72	4.2301E+5	4.5269	0.6652	-114.9
182.92	4.2351E+5	4.5255	0.6539	-114.1
183.12	4.2401E+5	4.5269	0.6627	-111.6
183.32	4.2451E+5	4.5297	0.6749	-109.7
183.51	4.2501E+5	4.5212	0.6751	-107.9
183.70	4.2551E+5	4.5269	0.6815	-105.1
183.90	4.2601E+5	4.5269	0.6903	-106.4
184.10	4.2651E+5	4.5241	0.6986	-104.8
184.30	4.2701E+5	4.5283	0.6925	-103.3
184.50	4.2751E+5	4.5269	0.6989	-100.6
184.70	4.2801E+5	4.5269	0.7089	-98.5
184.90	4.2851E+5	4.5241	0.7118	-98.9
185.10	4.2901E+5	4.5354	0.7190	-96.5
185.30	4.2951E+5	4.5382	0.7023	-92.6
185.51	4.3001E+5	4.5269	0.7043	-91.8
185.71	4.3051E+5	4.5354	0.7036	-91.5
185.89	4.3101E+5	4.5297	0.7130	-90.6
186.11	4.3151E+5	4.5241	0.7104	-88.5
186.31	4.3201E+5	4.5326	0.7179	-86.4
186.51	4.3251E+5	4.5326	0.7044	-85.5
186.71	4.3301E+5	4.5297	0.7121	-82.0
186.91	4.3351E+5	4.5326	0.7082	-81.0
187.11	4.3401E+5	4.5241	0.7034	-79.1
187.31	4.3451E+5	4.5340	0.7147	-78.1
187.52	4.3501E+5	4.5283	0.6940	-77.9
187.72	4.3551E+5	4.5255	0.6884	-75.0
187.92	4.3601E+5	4.5297	0.6855	-74.3
188.12	4.3651E+5	4.5241	0.6720	-72.4
188.32	4.3701E+5	4.5326	0.6701	-71.8
188.52	4.3751E+5	4.5396	0.6616	-68.5
188.72	4.3801E+5	4.5269	0.6594	-69.0
188.92	4.3851E+5	4.5297	0.6532	-66.2
189.12	4.3901E+5	4.5354	0.6436	-64.8
189.32	4.3951E+5	4.5326	0.6488	-63.7
189.52	4.4001E+5	4.5297	0.6327	-63.9
189.72	4.4051E+5	4.5326	0.6361	-59.9
189.92	4.4101E+5	4.5297	0.6179	-61.0
190.12	4.4151E+5	4.5326	0.6122	-60.6
190.32	4.4201E+5	4.5311	0.5889	-57.6
190.52	4.4251E+5	4.5326	0.6019	-57.5
190.72	4.4301E+5	4.5311	0.5778	-56.6
190.92	4.4351E+5	4.5354	0.5822	-57.4
191.12	4.4401E+5	4.5326	0.5743	-54.2
191.32	4.4451E+5	4.5311	0.5609	-53.8
191.51	4.4501E+5	4.5297	0.5565	-51.9
191.72	4.4551E+5	4.5311	0.5576	-52.9
191.90	4.4601E+5	4.5340	0.5350	-50.2
192.10	4.4651E+5	4.5340	0.5432	-52.5
192.31	4.4701E+5	4.5340	0.5238	-48.4
192.51	4.4751E+5	4.5326	0.5213	-47.6
192.71	4.4801E+5	4.5368	0.5200	-47.5
192.90	4.4851E+5	4.5368	0.5127	-47.9
193.09	4.4901E+5	4.5297	0.5129	-45.7
193.28	4.4951E+5	4.5340	0.5030	-47.0
193.48	4.5001E+5	4.5326	0.4883	-45.3
193.68	4.5051E+5	4.5326	0.4893	-42.9
193.86	4.5101E+5	4.5311	0.4839	-40.4
194.06	4.5151E+5	4.5297	0.4681	-43.5
194.26	4.5201E+5	4.5297	0.4698	-42.7
194.44	4.5251E+5	4.5283	0.4629	-39.7
194.62	4.5301E+5	4.5297	0.4544	-39.0
194.81	4.5351E+5	4.5311	0.4494	-39.9
195.01	4.5401E+5	4.5297	0.4337	-36.9
195.21	4.5451E+5	4.5340	0.4464	-37.2
195.41	4.5501E+5	4.5326	0.4196	-36.5
195.61	4.5551E+5	4.5368	0.4039	-39.3
195.81	4.5601E+5	4.5354	0.4204	-37.3
196.01	4.5651E+5	4.5396	0.4164	-37.1
196.21	4.5701E+5	4.5354	0.4026	-37.8
196.41	4.5751E+5	4.5340	0.4057	-34.7
196.60	4.5801E+5	4.5382	0.3989	-35.7
196.80	4.5851E+5	4.5340	0.3913	-31.6
197.00	4.5901E+5	4.5255	0.3933	-33.3
197.20	4.5951E+5	4.5297	0.3793	-33.2
197.40	4.6001E+5	4.5326	0.3804	-31.7
197.59	4.6051E+5	4.5311	0.3809	-30.6
197.78	4.6101E+5	4.5354	0.3785	-31.6
197.99	4.6151E+5	4.5425	0.3758	-32.5
198.20	4.6201E+5	4.5311	0.3720	-32.9
198.42	4.6251E+5	4.5326	0.3625	-30.4
198.62	4.6301E+5	4.5326	0.3489	-31.3
198.82	4.6351E+5	4.5311	0.3447	-31.9
199.02	4.6401E+5	4.5368	0.3441	-29.3
199.20	4.6451E+5	4.5368	0.3430	-29.9
199.40	4.6501E+5	4.5354	0.3403	-32.2
199.60	4.6551E+5	4.5396	0.3334	-29.8
199.80	4.6601E+5	4.5340	0.3340	-27.2
199.98	4.6651E+5	4.5368	0.3265	-27.3
200.18	4.6701E+5	4.5382	0.3352	-27.5
200.38	4.6751E+5	4.5340	0.3204	-26.4
200.58	4.6801E+5	4.5340	0.3128	-28.0
200.78	4.6851E+5	4.5425	0.3184	-25.9
201.00	4.6901E+5	4.5382	0.3130	-26.2
201.21	4.6951E+5	4.5368	0.3086	-26.1
201.41	4.7001E+5	4.5396	0.3063	-26.8
201.61	4.7051E+5	4.5354	0.2887	-26.1
201.81	4.7101E+5	4.5410	0.3025	-24.4
202.03	4.7151E+5	4.5368	0.3002	-25.5
202.24	4.7201E+5	4.5354	0.2938	-24.3
202.44	4.7251E+5	4.5340	0.2968	-24.5
202.64	4.7301E+5	4.5368	0.2836	-22.8
202.84	4.7351E+5	4.5382	0.2991	-28.4
203.04	4.7401E+5	4.5382	0.2910	-22.7
203.24	4.7451E+5	4.5326	0.2822	-22.1
203.44	4.7501E+5	4.5368	0.2815	-24.1
203.64	4.7551E+5	4.5340	0.2737	-23.1
203.84	4.7601E+5	4.5382	0.2693	-23.4
204.04	4.7651E+5	4.5396	0.2748	-22.4
204.24	4.7701E+5	4.5439	0.2723	-25.3
204.46	4.7751E+5	4.5354	0.2764	-24.3
204.67	4.7801E+5	4.5368	0.2673	-21.3
204.87	4.7851E+5	4.5354	0.2596	-22.9
205.07	4.7901E+5	4.5354	0.2646	-19.8
205.27	4.7951E+5	4.5326	0.2563	-21.6
205.47	4.8001E+5	4.5326	0.2575	-21.1
205.67	4.8051E+5	4.5326	0.2520	-21.1
205.87	4.8101E+5	4.5396	0.2487	-22.0
206.07	4.8151E+5	4.5326	0.2560	-19.7
206.27	4.8201E+5	4.5425	0.2484	-22.4
206.48	4.8251E+5	4.5368	0.2524	-23.3
206.70	4.8301E+5	4.5382	0.2471	-21.3
206.90	4.8351E+5	4.5425	0.2299	-20.8
207.12	4.8401E+5	4.5396	0.2433	-22.8
207.33	4.8451E+5	4.5396	0.2333	-14.0
207.53	4.8501E+5	4.5368	0.2353	-18.3
207.73	4.8551E+5	4.5410	0.2399	-21.0
207.95	4.8601E+5	4.5410	0.2320	-18.3
208.15	4.8651E+5	4.5396	0.2302	-19.7
208.36	4.8701E+5	4.5354	0.2308	-20.0
208.54	4.8751E+5	4.5410	0.2284	-16.5
208.76	4.8801E+5	4.5410	0.2224	-18.6
208.96	4.8851E+5	4.5382	0.2292	-21.8
209.18	4.8901E+5	4.5382	0.2226	-18.8
209.38	4.8951E+5	4.5396	0.2148	-17.4
209.58	4.9001E+5	4.5382	0.2186	-19.7
209.78	4.9051E+5	4.5382	0.2180	-18.0
209.98	4.9101E+5	4.5368	0.2227	-17.6
210.18	4.9151E+5	4.5382	0.2158	-21.4
210.37	4.9201E+5	4.5297	0.2167	-20.3
210.56	4.9251E+5	4.5354	0.2154	-16.8
210.76	4.9301E+5	4.5382	0.2110	-16.3
210.96	4.9351E+5	4.5368	0.2119	-18.6
211.16	4.9401E+5	4.5368	0.2062	-17.2
211.36	4.9451E+5	4.5326	0.2062	-17.4
211.54	4.9501E+5	4.5495	0.2029	-16.3
211.75	4.9551E+5	4.5354	0.2085	-20.4
211.97	4.9601E+5	4.5453	0.2079	-17.5
212.17	4.9651E+5	4.5354	0.2021	-17.7
212.39	4.9701E+5	4.5382	0.2081	-17.9
212.59	4.9751E+5	4.5326	0.1949	-13.6
212.79	4.9801E+5	4.5368	0.1920	-16.9
212.99	4.9851E+5	4.5425	0.1993	-19.0
213.20	4.9901E+5	4.5410	0.1966	-20.3
213.40	4.9951E+5	4.5396	0.1891	-18.9
213.62	5.0001E+5	4.5425	0.1936	-20.3
213.84	5.0051E+5	4.5396	0.1893	-17.4
214.05	5.0101E+5	4.5368	0.1862	-14.9
214.25	5.0151E+5	4.5382	0.1997	-19.0
214.45	5.0201E+5	4.5396	0.1874	-17.8
214.65	5.0251E+5	4.5382	0.1889	-17.7
214.85	5.0301E+5	4.5311	0.1749	-16.9
215.05	5.0351E+5	4.5368	0.1828	-16.6
215.25	5.0401E+5	4.5382	0.1778	-18.1
215.45	5.0451E+5	4.5382	0.1868	-15.5
215.65	5.0501E+5	4.5396	0.1830	-16.9
215.85	5.0551E+5	4.5467	0.1876	-16.8
216.06	5.0601E+5	4.5382	0.1823	-15.5
216.28	5.0651E+5	4.5368	0.1825	-15.9
216.46	5.0701E+5	4.5283	0.1860	-17.0
216.66	5.0751E+5	4.5326	0.1705	-16.5
216.86	5.0801E+5	4.5425	0.1750	-11.5
217.08	5.0851E+5	4.5368	0.1750	-15.9
217.28	5.0901E+5	4.5410	0.1825	-11.7
217.49	5.0951E+5	4.5382	0.1822	-18.7
217.69	5.1001E+5	4.5396	0.1715	-12.0
217.89	5.1051E+5	4.5410	0.1692	-16.3
218.11	5.1101E+5	4.5326	0.1658	-11.4
218.34	5.1151E+5	4.5396	0.1654	-15.1
218.53	5.1201E+5	4.5410	0.1728	-17.7
218.74	5.1251E+5	4.5340	0.1640	-15.1
218.96	5.1301E+5	4.5326	0.1652	-10.2
219.16	5.1351E+5	4.5382	0.1700	-15.3
219.36	5.1401E+5	4.5439	0.1731	-9.3
219.57	5.1451E+5	4.5368	0.1753	-16.3
219.79	5.1501E+5	4.5396	0.1652	-15.6
219.99	5.1551E+5	4.5326	0.1692	-13.2
220.19	5.1601E+5	4.5382	0.1607	-16.1
220.39	5.1651E+5	4.5368	0.1624	-13.1
220.59	5.1701E+5	4.5340	0.1572	-14.7
220.79	5.1751E+5	4.5368	0.1664	-14.1
220.99	5.1801E+5	4.5382	0.1523	-16.1
221.19	5.1851E+5	4.5368	0.1612	-15.9
221.39	5.1901E+5	4.5439	0.1594	-14.9
221.60	5.1951E+5	4.5382	0.1550	-11.3
221.82	5.2001E+5	4.5354	0.1659	-13.9
222.02	5.2051E+5	4.5368	0.1433	-11.8
222.22	5.2101E+5	4.5382	0.1589	-12.1
222.42	5.2151E+5	4.5425	0.1645	-19.5
222.63	5.2201E+5	4.5311	0.1587	-12.9
222.85	5.2251E+5	4.5368	0.1576	-14.8
223.05	5.2301E+5	4.5396	0.1520	-17.8
223.25	5.2351E+5	4.5425	0.1500	-13.9
223.46	5.2401E+5	4.5311	0.1599	-14.9
223.68	5.2451E+5	4.5453	0.1509	-17.6
223.91	5.2501E+5	4.5368	0.1539	-14.2
224.13	5.2551E+5	4.5382	0.1473	-13.8
224.33	5.2601E+5	4.5425	0.1441	-13.4
224.55	5.2651E+5	4.5396	0.1537	-11.2
224.76	5.2701E+5	4.5410	0.1395	-14.1
224.98	5.2751E+5	4.5439	0.1501	-15.8
225.18	5.2801E+5	4.5396	0.1484	-14.5
225.39	5.2851E+5	4.5410	0.1475	-11.2
225.61	5.2901E+5	4.5354	0.1407	-15.2
225.84	5.2951E+5	4.5368	0.1406	-15.5
226.03	5.3001E+5	4.5396	0.1444	-14.6
226.22	5.3051E+5	4.5382	0.1469	-9.9
226.43	5.3101E+5	4.5368	0.1385	-10.2
226.62	5.3151E+5	4.5410	0.1355	-12.0
226.84	5.3201E+5	4.5368	0.1379	-13.0
227.07	5.3251E+5	4.5354	0.1374	-13.8
227.27	5.3301E+5	4.5396	0.1441	-8.3
227.47	5.3351E+5	4.5382	0.1463	-16.3
227.67	5.3401E+5	4.5340	0.1436	-12.6
227.87	5.3451E+5	4.5382	0.1390	-13.4
228.07	5.3501E+5	4.5340	0.1418	-11.4
228.27	5.3551E+5	4.5382	0.1423	-11.5
228.47	5.3601E+5	4.5382	0.1452	-5.9
228.67	5.3651E+5	4.5326	0.1390	-13.9
228.87	5.3701E+5	4.5410	0.1394	-9.4
229.09	5.3751E+5	4.5368	0.1389	-10.2
229.32	5.3801E+5	4.5326	0.1314	-14.2
229.52	5.3851E+5	4.5368	0.1376	-10.0
229.72	5.3901E+5	4.5354	0.1338	-13.8
229.92	5.3951E+5	4.5354	0.1374	-14.1
230.12	5.4001E+5	4.5410	0.1395	-12.2
230.33	5.4051E+5	4.5396	0.1304	-13.3
230.55	5.4101E+5	4.5382	0.1315	-10.4
230.75	5.4151E+5	4.5326	0.1307	-13.9
230.95	5.4201E+5	4.5368	0.1296	-14.9
231.13	5.4251E+5	4.5410	0.1382	-8.7
231.35	5.4301E+5	4.5354	0.1330	-10.1
231.56	5.4351E+5	4.5382	0.1308	-11.7
231.76	5.4401E+5	4.5410	0.1274	-8.6
231.98	5.4451E+5	4.5368	0.1298	-10.4
232.20	5.4501E+5	4.5368	0.1143	-11.5
232.40	5.4551E+5	4.5340	0.1230	-11.8
232.59	5.4601E+5	4.5354	0.1279	-10.3
232.79	5.4651E+5	4.5453	0.1312	-12.8
233.01	5.4701E+5	4.5396	0.1379	-9.7
233.23	5.4751E+5	4.5453	0.1242	-7.5
233.44	5.4801E+5	4.5410	0.1296	-15.6
233.66	5.4851E+5	4.5326	0.1300	-8.6
233.86	5.4901E+5	4.5326	0.1384	-8.6
234.06	5.4951E+5	4.5396	0.1327	-11.2
234.26	5.5001E+5	4.5396	0.1274	-8.7
234.46	5.5051E+5	4.5368	0.1246	-8.2
234.66	5.5101E+5	4.5340	0.1239	-8.3
234.84	5.5151E+5	4.5297	0.1173	-14.0
235.04	5.5201E+5	4.5396	0.1256	-15.6
235.24	5.5251E+5	4.5340	0.1237	-7.6
235.44	5.5301E+5	4.5368	0.1265	-13.5
235.64	5.5351E+5	4.5410	0.1257	-11.2
235.84	5.5401E+5	4.5368	0.1214	-8.9
236.05	5.5451E+5	4.5396	0.1169	-10.8
236.25	5.5501E+5	4.5382	0.1225	-13.7
236.45	5.5551E+5	4.5382	0.1177	-12.8
236.65	5.5601E+5	4.5396	0.1282	-9.4
236.85	5.5651E+5	4.5368	0.1138	-11.3
237.05	5.5701E+5	4.5368	0.1174	-10.4
237.25	5.5751E+5	4.5368	0.1221	-17.7
237.45	5.5801E+5	4.5311	0.1216	-6.7
237.63	5.5851E+5	4.5340	0.1159	-7.9
237.83	5.5901E+5	4.5368	0.1223	-12.1
238.03	5.5951E+5	4.5382	0.1201	-9.0
238.23	5.6001E+5	4.5340	0.1297	-3.1
238.43	5.6051E+5	4.5368	0.1185	-8.6
238.63	5.6101E+5	4.5354	0.1181	-12.5
238.80	5.6151E+5	4.5410	0.1179	-13.1
239.01	5.6201E+5	4.5396	0.1084	-11.3
239.23	5.6251E+5	4.5396	0.1133	-12.7
239.43	5.6301E+5	4.5382	0.1144	-9.4
239.63	5.6351E+5	4.5354	0.1237	-13.2
239.83	5.6401E+5	4.5382	0.1114	-9.9
240.03	5.6451E+5	4.5410	0.1195	-5.8
240.25	5.6501E+5	4.5382	0.1121	-7.7
240.46	5.6551E+5	4.5453	0.1251	-6.8
240.69	5.6601E+5	4.5326	0.1178	-12.1
240.91	5.6651E+5	4.5354	0.1030	-9.7
241.11	5.6701E+5	4.5453	0.1119	-11.4
241.32	5.6751E+5	4.5340	0.1109	-6.9
241.54	5.6801E+5	4.5354	0.1152	-10.0
241.74	5.6851E+5	4.5340	0.1134	-4.2
241.94	5.6901E+5	4.5326	0.1059	-6.7
242.12	5.6951E+5	4.5439	0.1111	-12.8
242.34	5.7001E+5	4.5340	0.1112	-8.3
242.54	5.7051E+5	4.5410	0.1016	-10.1
242.76	5.7101E+5	4.5368	0.1109	-7.2
242.97	5.7151E+5	4.5368	0.1088	-5.5
243.17	5.7201E+5	4.5382	0.1154	-9.3
243.37	5.7251E+5	4.5425	0.1044	-6.0
243.59	5.7301E+5	4.5354	0.1146	-10.1
243.80	5.7351E+5	4.5340	0.1038	-9.6
244.00	5.7401E+5	4.5354	0.1017	-10.7
244.20	5.7451E+5	4.5396	0.1125	-17.7
244.40	5.7501E+5	4.5396	0.1051	-8.6
244.59	5.7551E+5	4.5410	0.1044	-10.0
244.78	5.7601E+5	4.5396	0.1112	-12.0
245.00	5.7651E+5	4.5354	0.1022	-9.2
245.20	5.7701E+5	4.5368	0.1036	-10.8
245.40	5.7751E+5	4.5326	0.1118	-5.8
245.60	5.7801E+5	4.5354	0.1095	-14.3
245.80	5.7851E+5	4.5283	0.1025	-6.9
246.00	5.7901E+5	4.5340	0.1179	-2.5
246.20	5.7951E+5	4.5425	0.1029	-10.4
246.42	5.8001E+5	4.5425	0.1091	-9.0
246.60	5.8051E+5	4.5340	0.1027	-8.9
246.81	5.8101E+5	4.5326	0.1051	-14.9
247.01	5.8151E+5	4.5354	0.1016	-11.5
247.21	5.8201E+5	4.5340	0.1058	-9.8
247.41	5.8251E+5	4.5297	0.0987	-10.0
247.61	5.8301E+5	4.5326	0.1032	-3.7
247.81	5.8351E+5	4.5368	0.1043	-12.4
248.01	5.8401E+5	4.5354	0.0994	-14.2
248.19	5.8451E+5	4.5340	0.1001	-5.4
248.39	5.8501E+5	4.5340	0.1066	-11.9
248.59	5.8551E+5	4.5326	0.1072	-10.3
248.79	5.8601E+5	4.5340	0.1033	-6.3
248.99	5.8651E+5	4.5326	0.0997	-8.7
249.19	5.8701E+5	4.5354	0.1008	-4.1
249.38	5.8751E+5	4.5410	0.1009	-12.0
249.59	5.8801E+5	4.5255	0.0995	-6.2
249.79	5.8851E+5	4.5425	0.1060	-8.5
250.01	5.8901E+5	4.5354	0.1087	-10.8
250.22	5.8951E+5	4.5382	0.0983	-11.0
250.41	5.9001E+5	4.5368	0.0967	-9.4
250.59	5.9051E+5	4.5354	0.0979	-9.1
250.79	5.9101E+5	4.5354	0.1039	-7.9
250.99	5.9151E+5	4.5382	0.0953	-11.8
251.17	5.9201E+5	4.5354	0.0975	-12.8
251.34	5.9251E+5	4.5396	0.0982	-11.4
251.50	5.9301E+5	4.5396	0.0988	-8.6
251.69	5.9351E+5	4.5368	0.0920	-10.1
251.87	5.9401E+5	4.5425	0.0977	-6.5
252.09	5.9451E+5	4.5311	0.1049	-9.1
252.30	5.9501E+5	4.5340	0.1040	-10.3
252.45	5.9551E+5	4.5326	0.0998	-8.9
252.63	5.9601E+5	4.5368	0.0952	-4.9
252.82	5.9651E+5	4.5396	0.0941	-11.2
252.98	5.9701E+5	4.5326	0.0945	-7.7
253.15	5.9751E+5	4.5368	0.0941	-6.2
253.31	5.9801E+5	4.5354	0.0944	-11.1
253.48	5.9851E+5	4.5368	0.0926	-6.5
253.65	5.9901E+5	4.5382	0.1001	-7.9
253.83	5.9951E+5	4.5354	0.0978	-11.4
254.01	6.0001E+5	4.5368	0.0911	-9.0
254.20	6.0051E+5	4.5311	0.0946	-10.6
254.38	6.0101E+5	4.5340	0.1006	-7.4
254.56	6.0151E+5	4.5340	0.0939	-5.6
254.73	6.0201E+5	4.5354	0.0931	-10.3
254.90	6.0251E+5	4.5354	0.0934	-14.2
255.06	6.0301E+5	4.5368	0.0978	-11.0
255.25	6.0351E+5	4.5368	0.0924	-7.6
255.43	6.0401E+5	4.5297	0.0990	-8.3
255.59	6.0451E+5	4.5368	0.0920	-6.5
255.78	6.0501E+5	4.5354	0.0898	-7.3
255.96	6.0551E+5	4.5340	0.0923	-14.0
256.14	6.0601E+5	4.5354	0.1018	-0.1
256.34	6.0651E+5	4.5340	0.0952	-12.8
256.53	6.0701E+5	4.5354	0.1006	-7.4
256.69	6.0751E+5	4.5297	0.0898	-9.3
256.87	6.0801E+5	4.5269	0.0937	-4.8
257.06	6.0851E+5	4.5269	0.0891	-10.0
257.24	6.0901E+5	4.5354	0.0918	-10.1
257.42	6.0951E+5	4.5311	0.0970	-9.8
257.59	6.1001E+5	4.5410	0.0945	-2.3
257.81	6.1051E+5	4.5297	0.0903	-10.4
258.01	6.1101E+5	4.5368	0.0871	-10.4
258.19	6.1151E+5	4.5283	0.0873	-5.2
258.35	6.1201E+5	4.5354	0.0916	-7.6
258.52	6.1251E+5	4.5453	0.0887	-12.7
258.74	6.1301E+5	4.5340	0.0923	-6.6
258.94	6.1351E+5	4.5354	0.0914	-11.8
259.10	6.1401E+5	4.5354	0.0897	-9.8
259.29	6.1451E+5	4.5311	0.0935	-9.4
259.45	6.1501E+5	4.5269	0.0877	-4.9
259.64	6.1551E+5	4.5297	0.0877	-12.9
259.80	6.1601E+5	4.5283	0.0906	-14.2
259.99	6.1651E+5	4.5311	0.0925	-5.6
260.19	6.1701E+5	4.5283	0.0879	-8.3
260.35	6.1751E+5	4.5297	0.0862	-6.5
260.53	6.1801E+5	4.5297	0.0909	-9.4
260.72	6.1851E+5	4.5326	Inf	-367.7
260.88	6.1901E+5	4.5283	0.0931	-10.6
261.05	6.1951E+5	4.5368	0.0915	-6.7
261.25	6.2001E+5	4.5368	0.0851	-8.8
261.45	6.2051E+5	4.5326	0.0888	-7.5
261.65	6.2101E+5	4.5283	0.0879	-10.3
261.85	6.2151E+5	4.5326	0.0880	-5.6
262.01	6.2201E+5	4.5283	0.0935	-5.6
262.22	6.2251E+5	4.5269	0.0864	-8.8
262.41	6.2301E+5	4.5311	0.0962	-0.6
262.61	6.2351E+5	4.5297	0.0868	-8.6
262.80	6.2401E+5	4.5311	0.0873	-5.1
263.00	6.2451E+5	4.5354	0.0953	-5.6
263.20	6.2501E+5	4.5269	0.0796	+343.5
263.40	6.2551E+5	4.5354	0.0842	-7.0
263.60	6.2601E+5	4.5297	0.0982	-11.1
263.78	6.2651E+5	4.5283	0.0871	-9.2
263.98	6.2701E+5	4.5297	0.0918	-10.0
264.18	6.2751E+5	4.5326	0.0839	-8.3
264.38	6.2801E+5	4.5283	0.0843	-8.6
264.56	6.2851E+5	4.5326	0.0874	-7.3
264.76	6.2901E+5	4.5311	0.0817	-10.7
264.96	6.2951E+5	4.5283	0.0852	-11.2
265.16	6.3001E+5	4.5326	0.0860	-10.7
265.34	6.3051E+5	4.5311	0.0828	-10.9
265.54	6.3101E+5	4.5354	0.0847	-13.7
265.74	6.3151E+5	4.5311	0.0808	-11.5
265.94	6.3201E+5	4.5269	0.0823	-4.5
266.12	6.3251E+5	4.5340	0.0851	-7.7
266.32	6.3301E+5	4.5326	0.0846	-12.1
266.51	6.3351E+5	4.5269	0.0805	-12.3
266.70	6.3401E+5	4.5241	0.0843	+0.6
266.89	6.3451E+5	4.5326	0.0822	-11.8
267.09	6.3501E+5	4.5283	0.0875	-17.0
267.29	6.3551E+5	4.5255	0.0876	-7.0
267.47	6.3601E+5	4.5297	0.0854	-6.5
267.64	6.3651E+5	4.5269	0.0912	-0.7
267.84	6.3701E+5	4.5354	0.0816	-4.9
268.04	6.3751E+5	4.5297	0.0777	+351.3
268.24	6.3801E+5	4.5326	0.0788	-11.6
268.40	6.3851E+5	4.5241	0.0813	+1.7
268.60	6.3901E+5	4.5269	0.0915	-3.0
268.80	6.3951E+5	4.5297	0.0795	-8.8
269.00	6.4001E+5	4.5227	0.0799	-8.2
269.18	6.4051E+5	4.5269	0.0833	-3.8
269.38	6.4101E+5	4.5283	0.0817	-12.7
269.58	6.4151E+5	4.5311	0.0805	-2.8
269.77	6.4201E+5	4.5283	0.0753	+348.9
269.96	6.4251E+5	4.5311	0.0781	-9.7
270.16	6.4301E+5	4.5311	0.0772	-2.5
270.35	6.4351E+5	4.5227	0.0807	-7.3
270.53	6.4401E+5	4.5255	0.0841	-6.8
270.73	6.4451E+5	4.5241	0.0858	-4.2
270.93	6.4501E+5	4.5354	0.0859	-6.9
271.11	6.4551E+5	4.5283	0.0914	-2.3
271.28	6.4601E+5	4.5283	0.0918	-4.1
271.46	6.4651E+5	4.5297	0.0760	+348.9
271.66	6.4701E+5	4.5255	0.0821	-8.6
271.83	6.4751E+5	4.5354	0.0901	+3.2
272.01	6.4801E+5	4.5255	0.0820	-14.9
272.21	6.4851E+5	4.5283	0.0828	-13.4
272.41	6.4901E+5	4.5269	0.0776	-4.9
272.59	6.4951E+5	4.5269	0.0776	-14.9
272.77	6.5001E+5	4.5227	0.0805	-5.6
272.98	6.5051E+5	4.5269	0.0754	-4.4
273.16	6.5101E+5	4.5227	0.0759	-11.0
273.36	6.5151E+5	4.5255	0.0752	-3.8
273.56	6.5201E+5	4.5227	0.0780	-2.5
273.72	6.5251E+5	4.5255	0.0821	-5.8
273.92	6.5301E+5	4.5269	0.0858	-17.7
274.12	6.5351E+5	4.5255	0.0759	-1.1
274.32	6.5401E+5	4.5283	0.0793	+3.0
274.50	6.5451E+5	4.5241	0.0735	+346.2
274.71	6.5501E+5	4.5326	0.0774	-6.5
274.90	6.5551E+5	4.5283	0.0787	-2.1
275.09	6.5601E+5	4.5255	0.0765	-2.8
275.29	6.5651E+5	4.5241	0.0774	-5.9
275.49	6.5701E+5	4.5184	0.0797	-2.1
275.67	6.5751E+5	4.5156	0.0729	+344.0
275.87	6.5801E+5	4.5255	0.0779	-1.3
276.07	6.5851E+5	4.5354	0.0752	-8.5
276.27	6.5901E+5	4.5283	0.0792	-3.8
276.43	6.5951E+5	4.5269	0.0737	-5.5
276.63	6.6001E+5	4.5255	0.0745	-6.5
276.83	6.6051E+5	4.5283	0.0773	-12.9
277.02	6.6101E+5	4.5227	0.0781	-0.4
277.20	6.6151E+5	4.5269	0.0780	-6.3
277.38	6.6201E+5	4.5255	0.0763	-3.9
277.56	6.6251E+5	4.5283	0.0725	+343.3
277.76	6.6301E+5	4.5311	0.0741	-2.4
277.97	6.6351E+5	4.5227	0.0783	-4.2
278.15	6.6401E+5	4.5241	0.0757	-6.3
278.35	6.6451E+5	4.5269	0.0882	-0.3
278.55	6.6501E+5	4.5255	0.0730	+346.4
278.71	6.6551E+5	4.5255	0.0766	-10.0
278.90	6.6601E+5	4.5354	0.0762	+1.8
279.08	6.6651E+5	4.5255	0.0729	-2.1
279.26	6.6701E+5	4.5269	0.0732	-2.1
279.44	6.6751E+5	4.5297	0.0722	+351.4
279.64	6.6801E+5	4.5255	0.0762	-2.5
279.83	6.6851E+5	4.5311	0.0735	-1.0
280.03	6.6901E+5	4.5269	0.0742	-3.2
280.21	6.6951E+5	4.5227	0.0767	-10.6
280.39	6.7001E+5	4.5283	0.0726	-2.0
280.59	6.7051E+5	4.5241	0.0736	+346.2
280.79	6.7101E+5	4.5354	0.0737	-2.5
280.96	6.7151E+5	4.5241	0.0724	-8.0
281.16	6.7201E+5	4.5227	0.0754	-2.0
281.36	6.7251E+5	4.5269	0.0733	-9.8
281.52	6.7301E+5	4.5241	0.0741	-5.3
281.71	6.7351E+5	4.5269	0.0713	-4.8
281.91	6.7401E+5	4.5227	0.0707	+352.4
282.07	6.7451E+5	4.5269	0.0734	-2.7
282.27	6.7501E+5	4.5227	Inf	-2.4
282.45	6.7551E+5	4.5297	0.0753	-4.6
282.62	6.7601E+5	4.5227	0.0698	+349.5
282.82	6.7651E+5	4.5340	0.0806	+2.1
283.00	6.7701E+5	4.5212	0.0718	-2.2
283.17	6.7751E+5	4.5283	0.0723	-12.4
283.33	6.7801E+5	4.5255	0.0739	-9.5
283.54	6.7851E+5	4.5255	0.0716	-7.6
283.70	6.7901E+5	4.5269	0.0739	-11.4
283.88	6.7951E+5	4.5269	0.0718	-7.3
284.07	6.8001E+5	4.5269	0.0791	-14.8
284.23	6.8051E+5	4.5283	0.0725	+4.8
284.42	6.8101E+5	4.5170	0.0713	-6.6
284.60	6.8151E+5	4.5227	0.0710	-10.3
284.75	6.8201E+5	4.5297	0.0729	-8.3
284.93	6.8251E+5	4.5227	0.0711	-6.7
285.12	6.8301E+5	4.5227	0.0712	-9.4
285.26	6.8351E+5	4.5184	Inf	-362.9
285.43	6.8401E+5	4.5297	0.0746	-9.4
285.60	6.8451E+5	4.5340	0.0677	+346.4
285.78	6.8501E+5	4.5241	0.0708	+0.1
285.96	6.8551E+5	4.5297	0.0709	+346.1
286.11	6.8601E+5	4.5227	0.0692	-3.9
286.30	6.8651E+5	4.5255	0.0727	-7.3
286.50	6.8701E+5	4.5255	0.0706	+356.6
286.68	6.8751E+5	4.5227	0.0695	+354.4
286.88	6.8801E+5	4.5241	0.0690	-7.0
287.06	6.8851E+5	4.5227	0.0690	+1.0
287.23	6.8901E+5	4.5198	0.0713	-1.7
287.43	6.8951E+5	4.5241	0.0695	-7.0
287.59	6.9001E+5	4.5255	0.0720	-6.9
287.79	6.9051E+5	4.5283	0.0692	-10.4
287.99	6.9101E+5	4.5156	Inf	+353.7
288.16	6.9151E+5	4.5326	0.0660	+348.7
288.36	6.9201E+5	4.5241	0.0696	-12.8
288.56	6.9251E+5	4.5241	0.0755	-9.1
288.72	6.9301E+5	4.5227	Inf	-11.1
288.91	6.9351E+5	4.5227	0.0674	+345.8
289.09	6.9401E+5	4.5241	0.0788	-12.8
289.29	6.9451E+5	4.5269	0.0699	-3.4
289.49	6.9501E+5	4.5255	0.0709	-7.9
289.66	6.9551E+5	4.5297	0.0705	-8.6
289.84	6.9601E+5	4.5283	0.0681	-6.6
290.04	6.9651E+5	4.5283	0.0696	-7.5
290.22	6.9701E+5	4.5269	0.0696	-4.8
290.40	6.9751E+5	4.5255	0.0673	-7.5
290.57	6.9801E+5	4.5283	0.0677	-10.0
290.74	6.9851E+5	4.5212	0.0690	-2.1
290.92	6.9901E+5	4.5241	0.0666	+353.3
291.09	6.9951E+5	4.5283	Inf	-3.9
291.27	7.0001E+5	4.5227	0.0700	-2.1
291.44	7.0051E+5	4.5241	0.0682	-13.2
291.63	7.0101E+5	4.5227	Inf	-15.0
291.80	7.0151E+5	4.5212	0.0685	-7.7
291.95	7.0201E+5	4.5269	0.0682	-6.6
292.12	7.0251E+5	4.5227	0.0677	-1.5
292.28	7.0301E+5	4.5241	0.0669	-7.3
292.45	7.0351E+5	4.5227	0.0678	+0.8
292.65	7.0401E+5	4.5269	0.0683	-2.9
292.81	7.0451E+5	4.5311	0.0770	-4.4
293.02	7.0501E+5	4.5255	0.0688	-2.8
293.21	7.0551E+5	4.5241	0.0760	-16.5
293.38	7.0601E+5	4.5184	0.0691	-3.7
293.58	7.0651E+5	4.5241	0.0651	+347.2
293.76	7.0701E+5	4.5227	0.0702	-3.8
293.96	7.0751E+5	4.5212	Inf	-362.8
294.15	7.0801E+5	4.5184	Inf	-7.8
294.31	7.0851E+5	4.5198	0.0670	-6.2
294.51	7.0901E+5	4.5255	0.0669	-15.6
294.68	7.0951E+5	4.5212	0.0654	-5.7
294.88	7.1001E+5	4.5227	0.0752	-12.4
295.08	7.1051E+5	4.5255	0.0659	-10.4
295.24	7.1101E+5	4.5255	0.0664	-9.7
295.43	7.1151E+5	4.5241	0.0691	-6.9
295.59	7.1201E+5	4.5212	0.0654	+345.4
295.79	7.1251E+5	4.5311	0.0655	-7.0
295.94	7.1301E+5	4.5241	0.0660	-12.8
296.14	7.1351E+5	4.5269	0.0679	-6.9
296.34	7.1401E+5	4.5212	0.0668	+1.1
296.52	7.1451E+5	4.5297	0.0644	+350.3
296.73	7.1501E+5	4.5227	0.0652	-8.3
296.89	7.1551E+5	4.5241	0.0661	-11.4
297.09	7.1601E+5	4.5198	0.0681	-8.0
297.29	7.1651E+5	4.5212	0.0682	-2.4
297.46	7.1701E+5	4.5283	0.0664	-5.9
297.66	7.1751E+5	4.5283	0.0731	+1.4
297.84	7.1801E+5	4.5241	0.0653	-3.7
298.04	7.1851E+5	4.5212	0.0685	-5.3
298.24	7.1901E+5	4.5198	0.0638	-4.9
298.40	7.1951E+5	4.5227	0.0667	-6.2
298.60	7.2001E+5	4.5340	0.0658	-1.5
298.75	7.2051E+5	4.5198	0.0665	-7.6
298.94	7.2101E+5	4.5283	0.0661	-6.2
299.10	7.2151E+5	4.5297	0.0651	+356.6
299.30	7.2201E+5	4.5212	0.0721	-6.0
299.50	7.2251E+5	4.5283	0.0657	-11.0
299.69	7.2301E+5	4.5241	0.0646	-8.7
299.87	7.2351E+5	4.5241	0.0660	-10.7
300.05	7.2401E+5	4.5227	0.0641	-5.3
300.25	7.2451E+5	4.5241	0.0642	+353.1
300.42	7.2501E+5	4.5255	0.0671	-8.3
300.62	7.2551E+5	4.5255	0.0650	-2.4
300.82	7.2601E+5	4.5269	Inf	+0.4
300.98	7.2651E+5	4.5297	0.0651	-7.2
301.17	7.2701E+5	4.5283	Inf	-11.5
301.33	7.2751E+5	4.5269	0.0656	-5.2
301.51	7.2801E+5	4.5156	0.0717	-14.2
301.68	7.2851E+5	4.5198	0.0663	-6.5
301.86	7.2901E+5	4.5241	0.0632	+352.0
302.06	7.2951E+5	4.5269	0.0644	-6.3
302.25	7.3001E+5	4.5340	0.0625	-353.4
302.45	7.3051E+5	4.5283	0.0656	-3.5
302.63	7.3101E+5	4.5241	0.0641	-8.6
302.83	7.3151E+5	4.5212	Inf	-5.3
302.98	7.3201E+5	4.5255	0.0643	-15.0
303.16	7.3251E+5	4.5241	0.0616	+343.2
303.33	7.3301E+5	4.5269	0.0629	+348.1
303.51	7.3351E+5	4.5311	0.0725	+2.5
303.71	7.3401E+5	4.5184	0.0640	-6.1
303.88	7.3451E+5	4.5297	Inf	-0.8
304.04	7.3501E+5	4.5170	Inf	-8.1
304.19	7.3551E+5	4.5283	0.0765	-24.8
304.37	7.3601E+5	4.5227	0.0644	-0.5
304.54	7.3651E+5	4.5241	Inf	+0.8
304.71	7.3701E+5	4.5241	0.0655	-6.6
304.87	7.3751E+5	4.5212	Inf	-8.1
305.04	7.3801E+5	4.5255	0.0625	-7.2
305.22	7.3851E+5	4.5170	0.0625	+349.7
305.37	7.3901E+5	4.5241	0.0620	-3.6
305.56	7.3951E+5	4.5212	0.0698	-8.7
305.72	7.4001E+5	4.5212	0.0632	-13.6
305.92	7.4051E+5	4.5184	0.0617	-9.2
306.10	7.4101E+5	4.5227	0.0625	+2.0
306.27	7.4151E+5	4.5283	0.0634	-1.7
306.44	7.4201E+5	4.5227	0.0637	-9.5
306.60	7.4251E+5	4.5311	0.0632	-8.2
306.75	7.4301E+5	4.5297	0.0619	+349.6
306.94	7.4351E+5	4.5184	0.0625	-3.5
307.12	7.4401E+5	4.5283	0.0625	-12.3
307.27	7.4451E+5	4.5255	Inf	-3.9
307.45	7.4501E+5	4.5198	0.0614	+348.9
307.62	7.4551E+5	4.5283	0.0642	-0.4
307.82	7.4601E+5	4.5283	0.0638	-3.1
307.97	7.4651E+5	4.5184	0.0615	-4.6
308.15	7.4701E+5	4.5198	Inf	-7.6
308.30	7.4751E+5	4.5241	0.0614	-12.9
308.47	7.4801E+5	4.5255	0.0672	-5.8
308.65	7.4851E+5	4.5184	Inf	-13.5
308.83	7.4901E+5	4.5241	0.0616	+1.3
309.02	7.4951E+5	4.5297	0.0618	-4.7
309.20	7.5001E+5	4.5198	0.0622	+347.6
309.38	7.5051E+5	4.5170	0.0636	-5.3
309.56	7.5101E+5	4.5269	0.0604	-3.0
309.76	7.5151E+5	4.5212	Inf	-3.4
309.93	7.5201E+5	4.5269	0.0668	-16.6
310.13	7.5251E+5	4.5198	0.0627	-3.5
310.31	7.5301E+5	4.5255	0.0626	-1.0
310.50	7.5351E+5	4.5255	0.0618	-9.2
310.66	7.5401E+5	4.5198	0.0678	-10.7
310.86	7.5451E+5	4.5255	0.0713	-22.9
311.05	7.5501E+5	4.5255	0.0626	-14.1
311.24	7.5551E+5	4.5227	0.0632	+2.8
311.43	7.5601E+5	4.5297	0.0613	-6.5
311.63	7.5651E+5	4.5212	0.0614	-14.7
311.79	7.5701E+5	4.5212	0.0610	-6.3
311.98	7.5751E+5	4.5269	0.0612	+1.0
312.14	7.5801E+5	4.5227	0.0619	+353.2
312.34	7.5851E+5	4.5255	0.0612	+355.9
312.53	7.5901E+5	4.5255	0.0667	-2.2
312.73	7.5951E+5	4.5198	0.0618	-3.3
312.92	7.6001E+5	4.5212	0.0606	-8.7
313.11	7.6051E+5	4.5241	0.0603	-11.4
313.29	7.6101E+5	4.5212	0.0614	-5.5
313.45	7.6151E+5	4.5156	0.0612	-0.7
313.64	7.6201E+5	4.5184	0.0595	-8.4
313.81	7.6251E+5	4.5227	0.0611	-5.5
314.00	7.6301E+5	4.5212	0.0606	-6.9
314.17	7.6351E+5	4.5212	0.0599	-2.5
314.37	7.6401E+5	4.5255	0.0613	-7.5
314.55	7.6451E+5	4.5269	0.0597	+356.7
314.75	7.6501E+5	4.5184	0.0592	-6.3
314.92	7.6551E+5	4.5198	0.0605	-5.2
315.12	7.6601E+5	4.5212	0.0605	-3.7
315.29	7.6651E+5	4.5184	0.0603	-8.4
315.47	7.6701E+5	4.5198	0.0586	-5.5
315.65	7.6751E+5	4.5198	0.0627	-5.9
315.85	7.6801E+5	4.5297	0.0612	+347.0
316.03	7.6851E+5	4.5170	Inf	-3.2
316.22	7.6901E+5	4.5184	0.0592	-4.7
316.40	7.6951E+5	4.5255	0.0593	+345.0
316.58	7.7001E+5	4.5184	Inf	-8.3
316.75	7.7051E+5	4.5241	0.0640	-6.7
316.95	7.7101E+5	4.5241	0.0597	-3.3
317.13	7.7151E+5	4.5198	Inf	-368.3
317.31	7.7201E+5	4.5198	Inf	-11.3
317.48	7.7251E+5	4.5311	Inf	-27.5
317.66	7.7301E+5	4.5212	0.0582	-7.5
317.85	7.7351E+5	4.5241	0.0591	-9.2
318.05	7.7401E+5	4.5269	Inf	-4.2
318.21	7.7451E+5	4.5184	0.0587	-4.3
318.41	7.7501E+5	4.5198	0.0678	-20.3
318.60	7.7551E+5	4.5128	0.0582	+348.6
318.79	7.7601E+5	4.5227	Inf	+5.2
318.96	7.7651E+5	4.5170	Inf	-10.6
319.14	7.7701E+5	4.5156	0.0579	-6.0
319.31	7.7751E+5	4.5170	0.0582	+352.5
319.49	7.7801E+5	4.5241	0.0586	-2.0
319.66	7.7851E+5	4.5227	0.0588	-8.7
319.86	7.7901E+5	4.5241	0.0579	+342.6
320.04	7.7951E+5	4.5297	0.0588	-2.8
320.24	7.8001E+5	4.5283	0.0597	-1.3
320.41	7.8051E+5	4.5212	0.0581	+2.3
320.61	7.8101E+5	4.5241	0.0577	-7.6
320.77	7.8151E+5	4.5198	0.0624	-6.8
320.97	7.8201E+5	4.5170	0.0583	+354.2
321.16	7.8251E+5	4.5227	0.0583	-3.8
321.34	7.8301E+5	4.5113	0.0575	+1.1
321.52	7.8351E+5	4.5234	0.0576	+354.6
321.72	7.8401E+5	4.5269	0.0582	+1.0
321.89	7.8451E+5	4.5198	0.0580	+351.7
322.07	7.8501E+5	4.5128	0.0589	+343.5
322.24	7.8551E+5	4.5255	Inf	-2.7
322.42	7.8601E+5	4.5227	0.0573	-6.2
322.60	7.8651E+5	4.5142	0.0583	-10.7
322.79	7.8701E+5	4.5198	0.0579	-7.2
322.95	7.8751E+5	4.5227	0.0561	+352.2
323.15	7.8801E+5	4.5198	0.0585	-4.0
323.33	7.8851E+5	4.5241	0.0564	+351.1
323.54	7.8901E+5	4.5283	0.0573	-4.1
323.72	7.8951E+5	4.5241	0.0577	-6.8
323.90	7.9001E+5	4.5156	0.0575	+4.5
324.07	7.9051E+5	4.5170	0.0577	+0.3
324.23	7.9101E+5	4.5198	0.0571	+351.3
324.43	7.9151E+5	4.5255	0.0584	+357.3
324.62	7.9201E+5	4.5241	0.0621	+3.1
324.81	7.9251E+5	4.5255	0.0573	+346.1
325.00	7.9301E+5	4.5241	0.0570	-0.4
325.18	7.9351E+5	4.5128	0.0578	+3.2
325.36	7.9401E+5	4.5156	Inf	-10.8
325.55	7.9451E+5	4.5255	0.0562	+3.3
325.73	7.9501E+5	4.5212	0.0565	-4.9
325.91	7.9551E+5	4.5212	0.0561	+348.8
326.08	7.9601E+5	4.5170	0.0564	-8.9
326.26	7.9651E+5	4.5212	0.0568	-3.6
326.43	7.9701E+5	4.5212	0.0569	-7.0
326.61	7.9751E+5	4.5283	0.0573	-1.9
326.79	7.9801E+5	4.5227	0.0569	+350.5
326.99	7.9851E+5	4.5170	0.0578	-5.7
327.18	7.9901E+5	4.5128	0.0554	+351.5
327.38	7.9951E+5	4.5241	0.0572	-4.6
327.56	8.0001E+5	4.5142	0.0561	+347.1
327.73	8.0051E+5	4.5241	0.0566	-4.8
327.91	8.0101E+5	4.5212	0.0565	-3.7
328.07	8.0151E+5	4.5227	Inf	-14.3
328.26	8.0201E+5	4.5198	Inf	-5.6
328.42	8.0251E+5	4.5142	0.0570	-8.2
328.61	8.0301E+5	4.5255	Inf	-2.5
328.77	8.0351E+5	4.5142	0.0571	-0.9
328.96	8.0401E+5	4.5241	0.0555	-5.4
329.14	8.0451E+5	4.5227	Inf	-5.8
329.32	8.0501E+5	4.5326	0.0560	-7.0
329.50	8.0551E+5	4.5184	0.0573	+5.8
329.69	8.0601E+5	4.5184	0.0569	-2.2
329.85	8.0651E+5	4.5198	0.0568	+356.1
330.02	8.0701E+5	4.5227	0.0563	-4.7
330.19	8.0751E+5	4.5212	0.0554	-6.5
330.37	8.0801E+5	4.5156	0.0562	+0.6
330.57	8.0851E+5	4.5156	0.0562	+348.4
330.74	8.0901E+5	4.5085	Inf	-4.5
330.94	8.0951E+5	4.5180	0.0569	-6.1
331.12	8.1001E+5	4.5184	0.0560	+354.5
331.30	8.1051E+5	4.5113	0.0566	+354.6
331.48	8.1101E+5	4.5195	0.0608	-8.0
331.70	8.1151E+5	4.5227	0.0569	-4.7
331.88	8.1201E+5	4.5212	0.0560	-6.1
332.07	8.1251E+5	4.5241	0.0564	-5.4
332.23	8.1301E+5	4.5198	0.0558	-12.4
332.41	8.1351E+5	4.5156	0.0557	-12.3
332.60	8.1401E+5	4.5227	0.0551	+357.4
332.76	8.1451E+5	4.5184	Inf	-8.8
332.95	8.1501E+5	4.5128	0.0553	+352.8
333.11	8.1551E+5	4.5128	0.0560	-4.0
333.31	8.1601E+5	4.5212	0.0551	+2.9
333.50	8.1651E+5	4.5241	Inf	+3.1
333.68	8.1701E+5	4.5184	Inf	-2.6
333.85	8.1751E+5	4.5184	0.0565	-6.0
334.05	8.1801E+5	4.5113	0.0551	-9.9
334.25	8.1851E+5	4.5222	0.0558	-8.7
334.43	8.1901E+5	4.5198	0.0555	+353.7
334.61	8.1951E+5	4.5170	Inf	-5.3
334.78	8.2001E+5	4.5156	0.0545	+354.1
334.96	8.2051E+5	4.5170	0.0556	+353.1
335.12	8.2101E+5	4.5212	Inf	-3.0
335.31	8.2151E+5	4.5170	0.0549	-12.4
335.48	8.2201E+5	4.5156	0.0562	-5.8
335.68	8.2251E+5	4.5198	0.0549	-6.4
335.86	8.2301E+5	4.5170	0.0548	-9.3
336.02	8.2351E+5	4.5170	0.0552	-3.3
336.21	8.2401E+5	4.5198	0.0539	+349.8
336.39	8.2451E+5	4.5142	0.0553	+350.5
336.59	8.2501E+5	4.5198	0.0547	-5.6
336.76	8.2551E+5	4.5113	0.0546	+356.9
336.95	8.2601E+5	4.5180	0.0556	-5.4
337.14	8.2651E+5	4.5170	0.0547	-10.3
337.30	8.2701E+5	4.5283	Inf	-11.6
337.49	8.2751E+5	4.5198	0.0557	+0.4
337.65	8.2801E+5	4.5099	Inf	+338.0
337.85	8.2851E+5	4.5208	0.0574	-2.2
338.05	8.2901E+5	4.5142	0.0541	-3.4
338.25	8.2951E+5	4.5156	0.0536	-9.0
338.42	8.3001E+5	4.5085	0.0545	-2.4
338.64	8.3051E+5	4.5173	0.0540	-6.0
338.83	8.3101E+5	4.5212	0.0542	+0.1
339.00	8.3151E+5	4.5057	0.0544	+355.7
339.20	8.3201E+5	4.5166	Inf	-12.5
339.38	8.3251E+5	4.5212	0.0545	-3.7
339.58	8.3301E+5	4.5170	0.0604	+5.1
339.77	8.3351E+5	4.5241	0.0542	-6.4
339.97	8.3401E+5	4.5156	0.0507	-10.2
340.15	8.3451E+5	4.5156	0.0531	-8.8
340.33	8.3501E+5	4.5156	0.0542	+356.3
340.50	8.3551E+5	4.5184	0.0544	+358.8
340.67	8.3601E+5	4.5212	0.0535	-4.5
340.85	8.3651E+5	4.5142	Inf	-5.1
341.00	8.3701E+5	4.5113	0.0538	-1.2
341.20	8.3751E+5	4.5164	0.0539	-10.1
341.38	8.3801E+5	4.5156	0.0542	-6.0
341.55	8.3851E+5	4.5170	0.0536	-10.7
341.73	8.3901E+5	4.5128	0.0584	-8.3
341.91	8.3951E+5	4.5113	Inf	-3.2
342.11	8.4001E+5	4.5115	Inf	-5.3
342.29	8.4051E+5	4.5156	Inf	+346.0
342.48	8.4101E+5	4.5198	0.0540	-6.2
342.66	8.4151E+5	4.5142	Inf	-7.1
342.83	8.4201E+5	4.5170	0.0556	-5.6
343.03	8.4251E+5	4.5099	0.0536	-8.7
343.23	8.4301E+5	4.5222	0.0539	-0.9
343.43	8.4351E+5	4.5156	0.0543	-1.5
343.59	8.4401E+5	4.5142	Inf	-12.4
343.77	8.4451E+5	4.5184	Inf	-4.3
343.94	8.4501E+5	4.5241	0.0549	+3.0
344.11	8.4551E+5	4.5156	0.0537	-6.8
344.31	8.4601E+5	4.5099	0.0543	-357.0
344.49	8.4651E+5	4.5180	0.0531	+351.5
344.69	8.4701E+5	4.5142	0.0537	+348.3
344.85	8.4751E+5	4.5113	Inf	-5.7
345.04	8.4801E+5	4.5122	0.0529	+355.3
345.25	8.4851E+5	4.5128	0.0537	+354.5
345.44	8.4901E+5	4.5184	0.0529	-5.1
345.64	8.4951E+5	4.5128	0.0539	+0.5
345.82	8.5001E+5	4.5255	0.0542	-12.9
346.00	8.5051E+5	4.5099	0.0543	-355.0
346.19	8.5101E+5	4.5111	0.0529	-5.7
346.35	8.5151E+5	4.5187	0.0543	-352.5
346.57	8.5201E+5	4.5113	0.0541	+353.7
346.75	8.5251E+5	4.5194	0.0533	-3.5
346.95	8.5301E+5	4.5099	0.0524	+349.8
347.13	8.5351E+5	4.5171	0.0549	+346.9
347.33	8.5401E+5	4.5198	0.0533	+359.5
347.53	8.5451E+5	4.5212	Inf	-7.6
347.70	8.5501E+5	4.5113	0.0534	+355.5
347.90	8.5551E+5	4.5149	0.0528	-2.5
348.10	8.5601E+5	4.5156	0.0517	-2.6
348.26	8.5651E+5	4.5113	0.0589	+4.6
348.48	8.5701E+5	4.5130	0.0519	+350.0
348.68	8.5751E+5	4.5113	0.0525	+1.9
348.88	8.5801E+5	4.5142	0.0532	-5.4
349.08	8.5851E+5	4.5255	0.0528	-7.3
349.28	8.5901E+5	4.5113	0.0525	-11.6
349.46	8.5951E+5	4.5111	0.0524	-4.0
349.63	8.6001E+5	4.5191	0.0529	-0.9
349.83	8.6051E+5	4.5142	0.0526	+356.6
349.99	8.6101E+5	4.5170	0.0528	-2.0
350.18	8.6151E+5	4.5057	0.0529	-8.0
350.36	8.6201E+5	4.5157	0.0488	-9.4
350.56	8.6251E+5	4.5170	0.0518	+352.1
350.76	8.6301E+5	4.5142	0.0491	-8.4
350.94	8.6351E+5	4.5156	0.0516	-8.3
351.12	8.6401E+5	4.5128	0.0519	-11.8
351.29	8.6451E+5	4.5057	0.0523	-4.5
351.47	8.6501E+5	4.5122	Inf	-4.0
351.68	8.6551E+5	4.5113	0.0524	-7.8
351.86	8.6601E+5	4.5092	Inf	-7.1
352.04	8.6651E+5	4.5105	Inf	-4.5
352.21	8.6701E+5	4.5115	0.0535	-5.0
352.41	8.6751E+5	4.5128	0.0527	-358.0
352.61	8.6801E+5	4.5128	Inf	-10.5
352.77	8.6851E+5	4.5184	0.0521	-1.6
352.94	8.6901E+5	4.5071	0.0511	-2.7
353.14	8.6951E+5	4.5181	0.0525	-12.7
353.34	8.7001E+5	4.5071	0.0526	+355.3
353.54	8.7051E+5	4.5135	0.0521	-7.7
353.72	8.7101E+5	4.5099	0.0529	-1.3
353.92	8.7151E+5	4.5166	0.0521	-5.5
354.10	8.7201E+5	4.5113	0.0513	-6.6
354.30	8.7251E+5	4.5095	0.0537	+351.8
354.50	8.7301E+5	4.5180	0.0511	+0.6
354.70	8.7351E+5	4.5099	0.0522	-10.8
354.92	8.7401E+5	4.5098	Inf	-8.7
355.08	8.7451E+5	4.5173	0.0518	-13.5
355.27	8.7501E+5	4.5099	0.0518	-0.6
355.46	8.7551E+5	4.5108	0.0526	+356.8
355.63	8.7601E+5	4.5147	0.0541	+360.3
355.83	8.7651E+5	4.5099	0.0529	-3.3
356.05	8.7701E+5	4.5099	0.0521	+355.4
356.21	8.7751E+5	4.5099	0.0515	+357.6
356.41	8.7801E+5	4.5126	0.0516	-2.7
356.60	8.7851E+5	4.5057	0.0515	-0.6
356.78	8.7901E+5	4.5084	0.0521	-0.3
356.98	8.7951E+5	4.5130	0.0524	+356.2
357.16	8.8001E+5	4.5071	0.0532	+357.8
357.38	8.8051E+5	4.5119	0.0518	-11.4
357.58	8.8101E+5	4.5099	Inf	-7.4
357.76	8.8151E+5	4.5129	0.0524	+354.5
357.96	8.8201E+5	4.5071	Inf	-4.6
358.14	8.8251E+5	4.5150	0.0525	-356.7
358.34	8.8301E+5	4.5071	0.0512	-4.5
358.54	8.8351E+5	4.5038	0.0524	+357.3
358.73	8.8401E+5	4.5070	0.0501	+4.0
358.93	8.8451E+5	4.5104	0.0512	-9.1
359.11	8.8501E+5	4.5095	0.0518	-4.6
359.29	8.8551E+5	4.5057	0.0531	-5.9
359.49	8.8601E+5	4.5074	0.0511	-6.9
359.67	8.8651E+5	4.5133	0.0515	+4.6
359.87	8.8701E+5	4.5113	Inf	-5.6
360.06	8.8751E+5	4.5109	0.0524	+356.6
360.24	8.8801E+5	4.5111	Inf	-0.5
360.42	8.8851E+5	4.5065	0.0504	-1.0
360.60	8.8901E+5	4.5027	Inf	+344.0
360.77	8.8951E+5	4.5057	0.0511	-4.5
360.95	8.9001E+5	4.5101	0.0509	-1.4
361.12	8.9051E+5	4.5016	Inf	-12.9
361.30	8.9101E+5	4.5057	0.0509	+351.8
361.47	8.9151E+5	4.5047	0.0509	-7.4
361.64	8.9201E+5	4.5122	0.0525	-1.1
361.85	8.9251E+5	4.5128	0.0507	-9.5
362.04	8.9301E+5	4.5156	0.0514	+354.2
362.20	8.9351E+5	4.5113	0.0507	-6.9
362.40	8.9401E+5	4.5125	0.0514	+355.8
362.57	8.9451E+5	4.5000	0.0507	-5.1
362.77	8.9501E+5	4.4962	0.0505	-4.8
362.93	8.9551E+5	4.5112	0.0507	+2.6
363.08	8.9601E+5	4.5087	0.0512	-2.6
363.27	8.9651E+5	4.5118	0.0503	-2.4
363.45	8.9701E+5	4.5057	0.0508	-5.6
363.63	8.9751E+5	4.5109	Inf	+2.4
363.81	8.9801E+5	4.5089	0.0496	-3.4
364.00	8.9851E+5	4.4978	Inf	-8.2
364.18	8.9901E+5	4.5123	0.0514	-3.9
364.38	8.9951E+5	4.5128	0.0505	+358.9
364.55	9.0001E+5	4.5113	Inf	-8.3
364.73	9.0051E+5	4.5099	0.0507	+360.2
364.90	9.0101E+5	4.5064	0.0502	-12.9
365.06	9.0151E+5	4.5140	0.0513	+358.9
365.26	9.0201E+5	4.5085	0.0470	-8.0
365.46	9.0251E+5	4.5033	0.0496	-4.5
365.66	9.0301E+5	4.5057	0.0504	-3.7
365.84	9.0351E+5	4.5030	0.0507	+353.0
366.01	9.0401E+5	4.5060	Inf	-4.4
366.19	9.0451E+5	4.5137	0.0505	-1.1
366.36	9.0501E+5	4.5071	0.0514	+356.2
366.54	9.0551E+5	4.5115	0.0500	+356.9
366.76	9.0601E+5	4.5029	Inf	+338.7
366.94	9.0651E+5	4.5087	0.0507	+1.5
367.12	9.0701E+5	4.5068	Inf	+333.7
367.31	9.0751E+5	4.5089	0.0498	-2.9
367.49	9.0801E+5	4.5036	0.0503	-1.8
367.69	9.0851E+5	4.5078	0.0517	+354.8
367.87	9.0901E+5	4.5058	0.0507	+352.8
368.06	9.0951E+5	4.4996	0.0503	+354.4
368.22	9.1001E+5	4.5135	0.0515	+357.5
368.40	9.1051E+5	4.5099	Inf	-5.6
368.59	9.1101E+5	4.5036	Inf	-5.6
368.77	9.1151E+5	4.5072	0.0491	-1.6
368.95	9.1201E+5	4.5063	Inf	-27.8
369.12	9.1251E+5	4.5194	0.0506	-7.1
369.34	9.1301E+5	4.5029	0.0492	-5.4
369.54	9.1351E+5	4.5033	Inf	-16.8
369.72	9.1401E+5	4.5063	Inf	-8.9
369.88	9.1451E+5	4.5104	0.0493	-4.9
370.05	9.1501E+5	4.5095	0.0500	+348.8
370.22	9.1551E+5	4.5051	0.0502	+361.3
370.40	9.1601E+5	4.5046	Inf	-6.4
370.57	9.1651E+5	4.5017	0.0526	+2.8
370.77	9.1701E+5	4.5037	0.0499	+5.1
370.95	9.1751E+5	4.5070	0.0585	-23.1
371.13	9.1801E+5	4.5054	Inf	-12.9
371.30	9.1851E+5	4.5027	0.0492	+0.2
371.48	9.1901E+5	4.5007	0.0499	-3.8
371.65	9.1951E+5	4.5112	0.0498	-6.3
371.83	9.2001E+5	4.5040	0.0504	+357.5
372.01	9.2051E+5	4.5067	0.0526	-364.5
372.21	9.2101E+5	4.5118	0.0489	-2.5
372.41	9.2151E+5	4.5113	0.0516	+361.3
372.61	9.2201E+5	4.5019	Inf	-1.5
372.80	9.2251E+5	4.5126	Inf	-7.7
372.98	9.2301E+5	4.4958	0.0493	+0.3
373.18	9.2351E+5	4.5111	0.0500	+357.2
373.34	9.2401E+5	4.5112	0.0501	+0.8
373.51	9.2451E+5	4.5136	0.0497	-8.8
373.69	9.2501E+5	4.5128	0.0491	+5.0
373.88	9.2551E+5	4.5099	0.0505	+358.2
374.07	9.2601E+5	4.4962	Inf	-4.5
374.23	9.2651E+5	4.4962	0.0514	+355.0
374.39	9.2701E+5	4.5053	Inf	-13.7
374.56	9.2751E+5	4.5105	0.0486	-7.3
374.74	9.2801E+5	4.5050	0.0487	-4.8
374.92	9.2851E+5	4.5047	Inf	-9.0
375.09	9.2901E+5	4.5112	0.0491	+356.0
375.27	9.2951E+5	4.5031	0.0498	+358.7
375.46	9.3001E+5	4.5036	0.0518	+361.0
375.64	9.3051E+5	4.5003	0.0502	+356.6
375.84	9.3101E+5	4.5024	0.0491	-5.4
376.00	9.3151E+5	4.4975	0.0490	-6.2
376.17	9.3201E+5	4.5003	0.0489	-10.1
376.34	9.3251E+5	4.5047	Inf	-2.0
376.50	9.3301E+5	4.5085	0.0491	-0.3
376.67	9.3351E+5	4.5115	Inf	-15.1
376.87	9.3401E+5	4.5014	0.0503	+353.3
377.07	9.3451E+5	4.5016	0.0486	-4.2
377.25	9.3501E+5	4.5024	0.0489	-10.1
377.45	9.3551E+5	4.4989	0.0488	-2.5
377.62	9.3601E+5	4.5171	0.0489	-4.2
377.80	9.3651E+5	4.5057	0.0484	-5.7
378.02	9.3701E+5	4.5050	Inf	-3.0
378.18	9.3751E+5	4.5054	0.0484	-7.9
378.35	9.3801E+5	4.5029	0.0482	-4.7
378.53	9.3851E+5	4.4983	0.0489	-10.2
378.72	9.3901E+5	4.4976	0.0480	-4.7
378.90	9.3951E+5	4.5055	Inf	-5.1
379.08	9.4001E+5	4.5041	Inf	-8.5
379.25	9.4051E+5	4.5113	Inf	-15.6
379.42	9.4101E+5	4.5089	0.0490	-10.2
379.60	9.4151E+5	4.5063	0.0491	-0.5
379.76	9.4201E+5	4.4976	0.0481	+360.2
379.95	9.4251E+5	4.5075	0.0488	-11.5
380.15	9.4301E+5	4.5040	0.0482	-4.8
380.33	9.4351E+5	4.5063	Inf	-25.9
380.50	9.4401E+5	4.5002	0.0483	-1.9
380.68	9.4451E+5	4.5014	0.0478	-1.0
380.85	9.4501E+5	4.5012	Inf	+349.6
381.01	9.4551E+5	4.5021	Inf	+348.4
381.19	9.4601E+5	4.5111	0.0498	+356.8
381.38	9.4651E+5	4.5013	0.0508	+360.3
381.56	9.4701E+5	4.4992	0.0480	-2.1
381.76	9.4751E+5	4.5019	Inf	-4.1
381.93	9.4801E+5	4.5019	0.0481	-2.2
382.09	9.4851E+5	4.5006	0.0499	+358.6
382.29	9.4901E+5	4.5089	Inf	-5.3
382.46	9.4951E+5	4.5060	Inf	+1.9
382.61	9.5001E+5	4.5006	0.0479	-2.4
382.79	9.5051E+5	4.5020	0.0484	-8.1
382.92	9.5101E+5	4.5014	0.0485	+355.4
383.09	9.5151E+5	4.5106	0.0486	-9.9
383.27	9.5201E+5	4.4971	0.0493	+353.1
383.46	9.5251E+5	4.5071	0.0485	-2.9
383.64	9.5301E+5	4.5055	0.0491	+351.6
383.84	9.5351E+5	4.5033	0.0506	+353.1
384.02	9.5401E+5	4.5027	0.0499	-10.6
384.20	9.5451E+5	4.4941	0.0479	-6.9
384.40	9.5501E+5	4.5036	0.0526	+362.4
384.59	9.5551E+5	4.5033	0.0476	+357.4
384.75	9.5601E+5	4.5046	Inf	-358.5
384.94	9.5651E+5	4.4999	0.0479	-8.1
385.10	9.5701E+5	4.4982	Inf	-5.3
385.25	9.5751E+5	4.5084	Inf	+1.6
385.42	9.5801E+5	4.5021	0.0481	+351.9
385.58	9.5851E+5	4.4879	0.0473	-3.8
385.77	9.5901E+5	4.4934	0.0483	-7.6
385.97	9.5951E+5	4.5013	Inf	+4.0
386.13	9.6001E+5	4.5016	Inf	+338.4
386.30	9.6051E+5	4.5072	0.0493	+363.6
386.50	9.6101E+5	4.5023	Inf	+350.0
386.67	9.6151E+5	4.5067	0.0475	-3.8
386.85	9.6201E+5	4.4988	Inf	-11.4
387.01	9.6251E+5	4.5041	0.0483	+360.2
387.18	9.6301E+5	4.4951	0.0499	+360.5
387.36	9.6351E+5	4.4983	0.0472	+348.7
387.56	9.6401E+5	4.5024	Inf	-0.9
387.73	9.6451E+5	4.4972	0.0485	+359.5
387.91	9.6501E+5	4.5065	0.0473	-4.7
388.11	9.6551E+5	4.4962	0.0461	-5.7
388.28	9.6601E+5	4.4976	0.0467	-4.2
388.43	9.6651E+5	4.5013	Inf	-10.3
388.61	9.6701E+5	4.4971	0.0474	-7.3
388.78	9.6751E+5	4.4942	0.0475	-3.5
388.94	9.6801E+5	4.4949	0.0471	-4.4
389.13	9.6851E+5	4.4958	0.0490	+358.6
389.33	9.6901E+5	4.5026	Inf	-8.0
389.49	9.6951E+5	4.4999	Inf	-5.6
389.66	9.7001E+5	4.5019	Inf	-4.9
389.84	9.7051E+5	4.4939	0.0475	-4.2
390.02	9.7101E+5	4.5027	0.0467	+1.1
390.21	9.7151E+5	4.4934	Inf	+347.9
390.39	9.7201E+5	4.4988	0.0475	+1.6
390.57	9.7251E+5	4.4980	0.0471	-6.7
390.76	9.7301E+5	4.4883	0.0482	+4.0
390.96	9.7351E+5	4.4954	0.0463	-4.0
391.14	9.7401E+5	4.4990	0.0480	+0.7
391.30	9.7451E+5	4.5006	Inf	+345.8
391.47	9.7501E+5	4.4976	Inf	-6.1
391.64	9.7551E+5	4.5128	0.0474	-3.2
391.84	9.7601E+5	4.5071	Inf	+334.5
392.04	9.7651E+5	4.4958	Inf	+345.8
392.20	9.7701E+5	4.4973	0.0492	-360.7
392.39	9.7751E+5	4.4930	0.0487	+362.1
392.59	9.7801E+5	4.5000	0.0467	-3.2
392.77	9.7851E+5	4.5014	0.0486	-4.9
392.95	9.7901E+5	4.5000	0.0467	-4.2
393.13	9.7951E+5	4.5043	0.0477	-6.0
393.33	9.8001E+5	4.4972	Inf	-4.8
393.50	9.8051E+5	4.5014	Inf	-27.3
393.67	9.8101E+5	4.4958	0.0467	+358.1
393.87	9.8151E+5	4.4958	Inf	+341.0
394.03	9.8201E+5	4.4986	Inf	-11.7
394.20	9.8251E+5	4.4972	0.0479	+355.9
394.40	9.8301E+5	4.4972	0.0467	-4.6
394.58	9.8351E+5	4.5043	Inf	+349.9
394.75	9.8401E+5	4.5029	0.0495	+353.4
394.95	9.8451E+5	4.5043	0.0480	+0.9
395.13	9.8501E+5	4.5043	0.0472	-2.5
395.31	9.8551E+5	4.4930	Inf	-9.6
395.48	9.8601E+5	4.5000	0.0465	-8.0
395.66	9.8651E+5	4.4944	0.0469	+356.3
395.83	9.8701E+5	4.4958	0.0466	-2.7
396.00	9.8751E+5	4.5000	0.0466	-4.3
396.16	9.8801E+5	4.5029	0.0470	-2.8
396.33	9.8851E+5	4.4901	0.0464	-3.4
396.48	9.8901E+5	4.5000	0.0476	-9.8
396.68	9.8951E+5	4.5014	Inf	+346.4
396.84	9.9001E+5	4.4972	Inf	-355.5
397.01	9.9051E+5	4.5000	0.0469	-6.6
397.21	9.9101E+5	4.4986	0.0457	-8.9
397.39	9.9151E+5	4.4901	0.0460	-5.0
397.58	9.9201E+5	4.5014	0.0479	+359.8
397.76	9.9251E+5	4.4958	0.0472	+352.5
397.96	9.9301E+5	4.4915	0.0468	-11.6
398.12	9.9351E+5	4.5029	Inf	-6.1
398.29	9.9401E+5	4.4986	Inf	-18.4
398.47	9.9451E+5	4.4930	0.0483	+359.3
398.66	9.9501E+5	4.4915	0.0459	-5.2
398.82	9.9551E+5	4.5000	Inf	-357.1
399.01	9.9601E+5	4.4958	0.0457	-10.0
399.17	9.9651E+5	4.5014	Inf	-360.2
399.34	9.9701E+5	4.4958	Inf	-14.9
399.52	9.9751E+5	4.4958	0.0475	-9.0
399.70	9.9801E+5	4.4930	0.0463	-6.1
399.89	9.9851E+5	4.4901	Inf	-6.3
400.05	9.9901E+5	4.4986	Inf	-359.6
400.24	9.9951E+5	4.4986	Inf	+339.7
400.40	1.0000E+6	4.4986	0.0437	-10.6
400.58	1.0005E+6	4.4944	Inf	-2.7
400.77	1.0010E+6	4.5029	0.0484	-362.0
400.95	1.0015E+6	4.4915	0.0465	-1.1
401.13	1.0020E+6	4.4944	0.0465	-5.6
401.30	1.0025E+6	4.4944	0.0476	+355.1
401.47	1.0030E+6	4.4958	0.0456	-4.7
401.65	1.0035E+6	4.4958	0.0462	-8.8
401.83	1.0040E+6	4.4944	0.0472	-1.3
402.01	1.0045E+6	4.4944	Inf	+351.5
402.18	1.0050E+6	4.4915	0.0476	+360.4
402.37	1.0055E+6	4.4958	0.0467	+355.5
402.56	1.0060E+6	4.4887	Inf	-14.8
402.71	1.0065E+6	4.4944	0.0474	-7.1
402.90	1.0070E+6	4.4901	0.0459	+357.3
403.08	1.0075E+6	4.4944	0.0460	-3.8
403.28	1.0080E+6	4.4930	0.0461	+1.5
403.45	1.0085E+6	4.4930	0.0456	-2.7
403.63	1.0090E+6	4.4944	0.0452	-6.2
403.81	1.0095E+6	4.4972	0.0472	+356.5
404.00	1.0100E+6	4.4915	0.0489	+361.5
404.18	1.0105E+6	4.4972	0.0467	+354.4
404.38	1.0110E+6	4.4972	0.0453	-5.8
404.56	1.0115E+6	4.5000	Inf	-8.2
404.73	1.0120E+6	4.4972	Inf	+339.5
404.89	1.0125E+6	4.4944	0.0454	+3.1
405.07	1.0130E+6	4.4944	Inf	-9.1
405.24	1.0135E+6	4.4958	Inf	+3.1
405.41	1.0140E+6	4.4930	Inf	-8.9
405.59	1.0145E+6	4.4901	0.0475	-360.7
405.76	1.0150E+6	4.4930	0.0472	+356.1
405.94	1.0155E+6	4.4930	Inf	+3.1
406.11	1.0160E+6	4.4944	0.0451	-5.7
406.31	1.0165E+6	4.4901	Inf	-3.5
406.47	1.0170E+6	4.4944	Inf	-5.7
406.62	1.0175E+6	4.4915	Inf	-4.8
406.81	1.0180E+6	4.4958	Inf	-12.6
406.97	1.0185E+6	4.4986	Inf	-8.6
407.14	1.0190E+6	4.4859	Inf	-4.0
407.31	1.0195E+6	4.4944	Inf	-355.2
407.49	1.0200E+6	4.4831	0.0451	-7.7
407.67	1.0205E+6	4.4972	0.0450	-9.6
407.85	1.0210E+6	4.4859	0.0461	-6.6
408.04	1.0215E+6	4.4915	0.0454	-3.9
408.22	1.0220E+6	4.4944	0.0458	+358.5
408.39	1.0225E+6	4.4972	0.0476	+364.6
408.57	1.0230E+6	4.4915	0.0451	-4.8
408.77	1.0235E+6	4.5000	Inf	-8.3
408.94	1.0240E+6	4.4972	0.0465	+360.6
409.12	1.0245E+6	4.4845	0.0455	+2.8
409.32	1.0250E+6	4.4986	0.0454	-4.4
409.48	1.0255E+6	4.4986	0.0467	-1.8
409.67	1.0260E+6	4.4901	Inf	-360.7
409.83	1.0265E+6	4.4958	0.0451	+1.3
410.02	1.0270E+6	4.5029	0.0483	+363.7
410.20	1.0275E+6	4.4986	0.0477	+358.3
410.36	1.0280E+6	4.4930	Inf	-4.5
410.55	1.0285E+6	4.4958	Inf	-3.7
410.71	1.0290E+6	4.4887	0.0459	-359.4
410.88	1.0295E+6	4.4901	0.0450	-5.9
411.05	1.0300E+6	4.4930	0.0445	-0.2
411.25	1.0305E+6	4.4986	0.0457	+359.6
411.43	1.0310E+6	4.4845	0.0456	+355.9
411.60	1.0315E+6	4.5000	0.0466	-362.0
411.80	1.0320E+6	4.4944	0.0456	+0.0
411.98	1.0325E+6	4.4845	Inf	-364.6
412.14	1.0330E+6	4.4915	0.0457	-2.6
412.31	1.0335E+6	4.4873	0.0452	-0.4
412.49	1.0340E+6	4.4873	0.0453	-3.5
412.66	1.0345E+6	4.4972	Inf	+353.5
412.83	1.0350E+6	4.4831	Inf	-3.9
413.03	1.0355E+6	4.5014	0.0455	-5.4
413.21	1.0360E+6	4.4915	0.0442	-2.8
413.38	1.0365E+6	4.4887	0.0472	+361.3
413.56	1.0370E+6	4.4859	0.0446	-3.9
413.76	1.0375E+6	4.5000	0.0450	-2.4
413.92	1.0380E+6	4.4859	0.0454	+357.0
414.09	1.0385E+6	4.4816	0.0470	+365.0
414.31	1.0390E+6	4.4873	0.0453	-8.2
414.51	1.0395E+6	4.4873	Inf	-20.9
414.67	1.0400E+6	4.4930	0.0460	-5.2
414.86	1.0405E+6	4.4873	0.0463	-6.4
415.04	1.0410E+6	4.4887	Inf	-354.0
415.20	1.0415E+6	4.4972	Inf	+342.8
415.37	1.0420E+6	4.4859	Inf	-12.2
415.54	1.0425E+6	4.4915	Inf	+4.9
415.72	1.0430E+6	4.4915	Inf	-8.3
415.89	1.0435E+6	4.4930	0.0457	-7.5
416.07	1.0440E+6	4.4887	0.0444	-2.8
416.27	1.0445E+6	4.5029	0.0457	+358.3
416.45	1.0450E+6	4.4887	0.0440	-4.5
416.62	1.0455E+6	4.4887	0.0440	-4.5
416.78	1.0460E+6	4.4930	Inf	-1.5
416.97	1.0465E+6	4.4887	0.0443	-3.6
417.13	1.0470E+6	4.4930	0.0471	+356.0
417.32	1.0475E+6	4.4887	0.0464	+358.7
417.48	1.0480E+6	4.4887	0.0444	-5.5
417.67	1.0485E+6	4.4887	0.0455	+363.6
417.85	1.0490E+6	4.4915	Inf	-10.2
418.01	1.0495E+6	4.4986	0.0442	-6.2
418.21	1.0500E+6	4.4915	0.0445	-4.0
418.38	1.0505E+6	4.4958	Inf	+350.2
418.55	1.0510E+6	4.5014	Inf	-11.9
418.70	1.0515E+6	4.5057	0.0443	-5.1
418.88	1.0520E+6	4.5029	Inf	+3.2
419.05	1.0525E+6	4.5085	0.0461	+360.4
419.23	1.0530E+6	4.5057	Inf	-372.9
419.40	1.0535E+6	4.5057	0.0452	-7.6
419.60	1.0540E+6	4.5029	Inf	-11.4
419.76	1.0545E+6	4.5043	0.0445	-9.1
419.94	1.0550E+6	4.5071	0.0445	-10.1
420.11	1.0555E+6	4.5085	Inf	-4.5
420.28	1.0560E+6	4.5014	Inf	+359.6
420.44	1.0565E+6	4.5043	0.0445	+357.9
420.59	1.0570E+6	4.5000	0.0463	+357.3
420.79	1.0575E+6	4.5057	Inf	-3.8
420.96	1.0580E+6	4.5000	0.0466	+358.9
421.11	1.0585E+6	4.5057	Inf	+344.2
421.27	1.0590E+6	4.5014	0.0458	-12.2
421.47	1.0595E+6	4.5029	0.0440	-2.1
421.66	1.0600E+6	4.5029	0.0486	+363.2
421.84	1.0605E+6	4.4986	0.0444	-4.0
422.04	1.0610E+6	4.4972	0.0457	-362.3
422.22	1.0615E+6	4.5014	0.0453	-4.4
422.39	1.0620E+6	4.5057	0.0441	-8.0
422.56	1.0625E+6	4.4930	Inf	-10.6
422.74	1.0630E+6	4.4986	Inf	-30.5
422.90	1.0635E+6	4.5043	0.0441	-9.4
423.07	1.0640E+6	4.5043	0.0443	-3.6
423.24	1.0645E+6	4.5043	0.0470	+365.0
423.44	1.0650E+6	4.5043	0.0450	-5.7
423.62	1.0655E+6	4.5000	0.0453	-4.8
423.79	1.0660E+6	4.4972	0.0446	+360.6
423.95	1.0665E+6	4.5000	Inf	-2.9
424.14	1.0670E+6	4.5071	Inf	-3.3
424.30	1.0675E+6	4.5071	0.0445	-5.4
424.47	1.0680E+6	4.5099	0.0436	-6.5
424.63	1.0685E+6	4.4958	0.0444	-8.9
424.82	1.0690E+6	4.5029	0.0445	-6.0
424.98	1.0695E+6	4.5014	Inf	+350.7
425.15	1.0700E+6	4.5000	0.0433	-11.9
425.32	1.0705E+6	4.4972	0.0458	+361.9
425.50	1.0710E+6	4.5014	0.0458	+364.8
425.67	1.0715E+6	4.4958	0.0457	+363.9
425.83	1.0720E+6	4.5057	Inf	+349.6
426.01	1.0725E+6	4.5029	0.0443	+3.7
426.20	1.0730E+6	4.4972	Inf	+350.3
426.36	1.0735E+6	4.5014	0.0445	+2.3
426.53	1.0740E+6	4.4986	0.0469	+360.8
426.73	1.0745E+6	4.5000	0.0439	-5.6
426.91	1.0750E+6	4.5000	0.0436	-4.1
427.08	1.0755E+6	4.5099	0.0444	-5.6
427.25	1.0760E+6	4.5029	0.0444	+1.7
427.43	1.0765E+6	4.4972	Inf	+348.4
427.60	1.0770E+6	4.5014	Inf	-18.7
427.76	1.0775E+6	4.5043	Inf	-7.7
427.93	1.0780E+6	4.4958	Inf	-357.7
428.11	1.0785E+6	4.4986	0.0431	-0.4
428.29	1.0790E+6	4.4972	Inf	+3.5
428.46	1.0795E+6	4.4972	0.0434	-11.7
428.64	1.0800E+6	4.4901	0.0444	-0.6
428.81	1.0805E+6	4.5029	Inf	-365.2
428.97	1.0810E+6	4.5000	Inf	-4.1
429.14	1.0815E+6	4.5029	Inf	+357.9
429.31	1.0820E+6	4.5043	Inf	+356.9
429.49	1.0825E+6	4.5029	0.0433	-7.6
429.66	1.0830E+6	4.4972	0.0463	+360.8
429.84	1.0835E+6	4.5043	0.0451	+357.5
430.02	1.0840E+6	4.5029	0.0437	-2.9
430.22	1.0845E+6	4.5029	0.0443	+2.7
430.39	1.0850E+6	4.5029	0.0433	-3.7
430.56	1.0855E+6	4.5057	0.0444	+354.7
430.74	1.0860E+6	4.4972	Inf	+331.9
430.90	1.0865E+6	4.4944	0.0436	-7.0
431.07	1.0870E+6	4.4972	Inf	+355.5
431.24	1.0875E+6	4.5000	Inf	-13.3
431.42	1.0880E+6	4.4986	0.0436	-1.8
431.59	1.0885E+6	4.4986	Inf	-16.1
431.75	1.0890E+6	4.4873	Inf	-6.9
431.90	1.0895E+6	4.4986	0.0431	-7.2
432.09	1.0900E+6	4.4972	Inf	-7.9
432.25	1.0905E+6	4.4958	0.0468	+366.3
432.42	1.0910E+6	4.5000	0.0430	-2.6
432.60	1.0915E+6	4.4958	Inf	-358.8
432.78	1.0920E+6	4.4930	Inf	-9.3
432.95	1.0925E+6	4.4972	0.0432	-3.9
433.12	1.0930E+6	4.4958	0.0437	-1.0
433.28	1.0935E+6	4.5043	0.0435	-2.4
433.47	1.0940E+6	4.5000	0.0444	-5.5
433.63	1.0945E+6	4.5029	Inf	+346.2
433.80	1.0950E+6	4.5000	0.0454	+358.8
433.98	1.0955E+6	4.5029	Inf	+Inf
434.16	1.0960E+6	4.4986	Inf	+349.3
434.33	1.0965E+6	4.5043	0.0442	+355.5
434.50	1.0970E+6	4.5014	Inf	+360.4
434.66	1.0975E+6	4.5000	0.0444	-8.1
434.83	1.0980E+6	4.5014	0.0441	-1.4
435.00	1.0985E+6	4.5014	0.0429	-8.3
435.18	1.0990E+6	4.4873	0.0436	-10.1
435.36	1.0995E+6	4.5000	Inf	-359.4
435.54	1.1000E+6	4.4986	0.0428	-3.8
435.73	1.1005E+6	4.4958	Inf	+354.3
435.89	1.1010E+6	4.5071	0.0447	+356.2
436.08	1.1015E+6	4.4901	0.0436	+356.2
436.28	1.1020E+6	4.4930	0.0433	+0.6
436.44	1.1025E+6	4.4944	Inf	-12.9
436.61	1.1030E+6	4.4944	0.0438	-11.9
436.78	1.1035E+6	4.4958	0.0429	-3.8
436.98	1.1040E+6	4.5057	0.0429	-0.8
437.14	1.1045E+6	4.4873	0.0426	-6.6
437.31	1.1050E+6	4.5000	0.0452	-0.8
437.49	1.1055E+6	4.4944	Inf	-16.5
437.67	1.1060E+6	4.4972	0.0430	-5.0
437.86	1.1065E+6	4.4972	0.0441	+354.0
438.04	1.1070E+6	4.4859	0.0444	+361.6
438.20	1.1075E+6	4.5014	0.0429	+0.8
438.39	1.1080E+6	4.4986	0.0425	+0.4
438.56	1.1085E+6	4.4986	0.0433	-7.2
438.72	1.1090E+6	4.4958	0.0458	+362.6
438.90	1.1095E+6	4.5014	0.0438	-0.8
439.09	1.1100E+6	4.5029	0.0440	+3.4
439.25	1.1105E+6	4.4915	0.0436	+1.2
439.40	1.1110E+6	4.4986	Inf	-357.2
439.57	1.1115E+6	4.5014	Inf	+348.8
439.74	1.1120E+6	4.4930	0.0432	-2.8
439.90	1.1125E+6	4.4944	Inf	-30.2
440.07	1.1130E+6	4.4944	0.0433	-4.2
440.23	1.1135E+6	4.4972	Inf	+343.8
440.38	1.1140E+6	4.4958	Inf	+335.1
440.57	1.1145E+6	4.4972	0.0432	-9.0
440.73	1.1150E+6	4.4944	0.0437	-5.4
440.88	1.1155E+6	4.5014	0.0427	-4.6
441.07	1.1160E+6	4.4972	0.0432	+0.2
441.27	1.1165E+6	4.4986	0.0431	-11.1
441.45	1.1170E+6	4.4986	Inf	-21.1
441.61	1.1175E+6	4.4915	0.0435	+351.8
441.78	1.1180E+6	4.4958	0.0435	-360.4
441.95	1.1185E+6	4.4887	0.0433	+0.4
442.11	1.1190E+6	4.4930	Inf	+4.4
442.28	1.1195E+6	4.4887	0.0430	-6.2
442.46	1.1200E+6	4.4901	0.0423	-0.6
442.63	1.1205E+6	4.4930	Inf	+351.0
442.80	1.1210E+6	4.4944	Inf	-21.4
442.96	1.1215E+6	4.4958	Inf	-9.1
443.11	1.1220E+6	4.5014	Inf	-3.0
443.26	1.1225E+6	4.4915	0.0428	-10.9
443.43	1.1230E+6	4.4944	0.0430	+2.6
443.56	1.1235E+6	4.4930	Inf	-21.5
443.69	1.1240E+6	4.4930	0.0428	-2.2
443.82	1.1245E+6	4.5014	0.0397	-7.3
444.01	1.1250E+6	4.4930	0.0438	-4.7
444.17	1.1255E+6	4.4958	Inf	+333.9
444.32	1.1260E+6	4.4930	Inf	+336.0
444.46	1.1265E+6	4.4816	0.0425	-7.7
444.66	1.1270E+6	4.5029	0.0434	-5.3
444.84	1.1275E+6	4.5000	0.0427	-5.9
445.01	1.1280E+6	4.4972	0.0425	-1.4
445.14	1.1285E+6	4.4958	0.0426	-5.5
445.31	1.1290E+6	4.4958	Inf	-6.1
445.44	1.1295E+6	4.4972	Inf	+0.0
445.57	1.1300E+6	4.4944	Inf	-369.4
445.70	1.1305E+6	4.4901	Inf	+6.3
445.87	1.1310E+6	4.4958	Inf	-8.3
446.00	1.1315E+6	4.4944	0.0420	-5.5
446.14	1.1320E+6	4.4915	0.0436	-5.3
446.30	1.1325E+6	4.4944	0.0426	+2.7
446.47	1.1330E+6	4.4887	0.0425	-0.2
446.64	1.1335E+6	4.4887	Inf	+2.0
446.79	1.1340E+6	4.4958	0.0412	-6.7
446.95	1.1345E+6	4.4901	0.0435	+359.0
447.12	1.1350E+6	4.4972	0.0439	-4.3
447.29	1.1355E+6	4.4930	0.0416	-10.4
447.45	1.1360E+6	4.4887	0.0422	-3.5
447.63	1.1365E+6	4.4972	Inf	+352.9
447.80	1.1370E+6	4.4930	Inf	-368.0
447.99	1.1375E+6	4.4873	0.0426	-1.0
448.15	1.1380E+6	4.4915	0.0418	-5.3
448.30	1.1385E+6	4.4873	Inf	+357.9
448.47	1.1390E+6	4.4958	Inf	-2.5
448.63	1.1395E+6	4.4831	Inf	+347.7
448.83	1.1400E+6	4.4986	0.0426	-0.2
449.00	1.1405E+6	4.4887	0.0418	-2.7
449.15	1.1410E+6	4.4944	0.0425	+1.0
449.31	1.1415E+6	4.4887	Inf	+347.0
449.50	1.1420E+6	4.4930	Inf	-23.3
449.66	1.1425E+6	4.4930	Inf	-367.8
449.83	1.1430E+6	4.4915	0.0429	+0.6
450.00	1.1435E+6	4.4915	0.0424	+355.9
450.18	1.1440E+6	4.4915	Inf	-7.8
450.35	1.1445E+6	4.4901	0.0441	-1.0
450.51	1.1450E+6	4.4859	Inf	-4.1
450.68	1.1455E+6	4.4915	Inf	+344.3
450.84	1.1460E+6	4.4930	Inf	-3.3
451.01	1.1465E+6	4.4915	0.0404	-12.2
451.18	1.1470E+6	4.4944	Inf	-361.0
451.34	1.1475E+6	4.4802	Inf	-6.0
451.53	1.1480E+6	4.4887	0.0419	+1.4
451.74	1.1485E+6	4.4901	0.0429	-7.4
451.91	1.1490E+6	4.4887	Inf	+355.2
452.08	1.1495E+6	4.4901	0.0422	-7.4
452.24	1.1500E+6	4.4831	Inf	-12.9
452.41	1.1505E+6	4.4915	0.0438	+5.6
452.62	1.1510E+6	4.4901	0.0440	+0.0
452.79	1.1515E+6	4.4887	0.0416	-4.8
452.98	1.1520E+6	4.4930	0.0410	-5.8
453.14	1.1525E+6	4.4845	0.0427	-4.8
453.34	1.1530E+6	4.4859	0.0431	+356.9
453.51	1.1535E+6	4.4915	Inf	-363.9
453.67	1.1540E+6	4.4944	Inf	+1.9
453.84	1.1545E+6	4.4930	Inf	-12.0
454.02	1.1550E+6	4.4845	Inf	+357.5
454.19	1.1555E+6	4.4845	0.0425	-9.8
454.35	1.1560E+6	4.4915	Inf	-365.8
454.52	1.1565E+6	4.4958	0.0415	-5.4
454.69	1.1570E+6	4.4944	0.0441	+364.2
454.89	1.1575E+6	4.4930	Inf	-357.9
455.05	1.1580E+6	4.4887	Inf	+0.6
455.22	1.1585E+6	4.4887	Inf	+342.3
455.38	1.1590E+6	4.4859	Inf	-4.2
455.57	1.1595E+6	4.4915	0.0423	+1.5
455.75	1.1600E+6	4.4944	Inf	-15.5
455.92	1.1605E+6	4.4845	Inf	-367.7
456.08	1.1610E+6	4.4972	Inf	-360.8
456.25	1.1615E+6	4.4859	Inf	-364.6
456.43	1.1620E+6	4.4816	0.0420	-10.7
456.62	1.1625E+6	4.4901	0.0411	+3.6
456.82	1.1630E+6	4.4873	0.0412	-0.6
456.98	1.1635E+6	4.4873	0.0411	-8.0
457.15	1.1640E+6	4.4901	0.0437	+362.1
457.33	1.1645E+6	4.4831	0.0414	-1.5
457.53	1.1650E+6	4.4873	0.0415	-0.4
457.69	1.1655E+6	4.4873	Inf	+363.8
457.86	1.1660E+6	4.4901	0.0420	-6.1
458.06	1.1665E+6	4.4831	Inf	+3.6
458.23	1.1670E+6	4.4887	Inf	+363.6
458.40	1.1675E+6	4.4915	Inf	+351.0
458.56	1.1680E+6	4.4887	0.0414	-7.4
458.76	1.1685E+6	4.4845	Inf	-0.6
458.93	1.1690E+6	4.4845	0.0411	-5.7
459.08	1.1695E+6	4.4802	Inf	-5.0
459.26	1.1700E+6	4.4915	0.0420	-8.6
459.44	1.1705E+6	4.4915	Inf	-3.0
459.63	1.1710E+6	4.4930	0.0431	-3.6
459.79	1.1715E+6	4.4859	Inf	+354.1
459.96	1.1720E+6	4.4887	Inf	+346.9
460.12	1.1725E+6	4.4859	Inf	+361.7
460.29	1.1730E+6	4.4816	0.0425	+2.5
460.49	1.1735E+6	4.4873	0.0413	-7.2
460.69	1.1740E+6	4.4859	Inf	-357.3
460.86	1.1745E+6	4.4802	0.0426	+357.0
461.06	1.1750E+6	4.4901	Inf	+0.2
461.26	1.1755E+6	4.4845	Inf	+364.4
461.42	1.1760E+6	4.4845	Inf	-369.5
461.59	1.1765E+6	4.4831	0.0412	-9.1
461.79	1.1770E+6	4.4887	0.0431	-0.6
461.97	1.1775E+6	4.4887	Inf	-4.2
462.15	1.1780E+6	4.4873	0.0428	-7.0
462.34	1.1785E+6	4.4816	0.0414	-5.3
462.54	1.1790E+6	4.4901	Inf	-368.5
462.72	1.1795E+6	4.4816	Inf	-360.8
462.92	1.1800E+6	4.4915	Inf	-2.1
463.10	1.1805E+6	4.4845	0.0427	-6.8
463.29	1.1810E+6	4.4887	0.0414	-1.9
463.47	1.1815E+6	4.4845	0.0419	-361.1
463.65	1.1820E+6	4.4831	Inf	-3.8
463.85	1.1825E+6	4.4915	0.0430	-12.2
464.03	1.1830E+6	4.4859	0.0435	+365.5
464.22	1.1835E+6	4.4859	Inf	+Inf
464.38	1.1840E+6	4.4873	Inf	-3.0
464.55	1.1845E+6	4.4816	0.0420	-6.4
464.77	1.1850E+6	4.4901	0.0404	-7.5
464.96	1.1855E+6	4.4915	0.0419	-3.8
465.15	1.1860E+6	4.4788	Inf	+356.8
465.33	1.1865E+6	4.4930	0.0407	-2.8
465.55	1.1870E+6	4.4816	0.0406	-8.7
465.73	1.1875E+6	4.4831	Inf	-24.6
465.90	1.1880E+6	4.4930	Inf	-5.1
466.06	1.1885E+6	4.4816	Inf	-12.0
466.25	1.1890E+6	4.4873	Inf	-355.3
466.44	1.1895E+6	4.4802	Inf	-356.6
466.61	1.1900E+6	4.4915	Inf	-4.5
466.80	1.1905E+6	4.4802	Inf	-370.7
466.98	1.1910E+6	4.4873	0.0415	-0.9
467.14	1.1915E+6	4.4831	Inf	+354.6
467.34	1.1920E+6	4.4831	0.0407	-5.2
467.51	1.1925E+6	4.4859	0.0410	-7.9
467.68	1.1930E+6	4.4746	Inf	-0.9
467.86	1.1935E+6	4.4859	0.0413	+1.3
468.02	1.1940E+6	4.4845	Inf	-359.6
468.21	1.1945E+6	4.4760	Inf	-362.2
468.37	1.1950E+6	4.4986	0.0415	-7.5
468.54	1.1955E+6	4.4802	0.0411	+2.6
468.71	1.1960E+6	4.4915	Inf	-5.2
468.91	1.1965E+6	4.4831	0.0401	-6.9
469.11	1.1970E+6	4.4816	0.0411	-2.6
469.29	1.1975E+6	4.4845	0.0415	-7.8
469.45	1.1980E+6	4.4887	0.0417	-10.8
469.62	1.1985E+6	4.4831	0.0415	-3.2
469.82	1.1990E+6	4.4859	Inf	-361.9
470.00	1.1995E+6	4.4788	0.0429	+361.9
470.20	1.2000E+6	4.4930	Inf	-9.9
470.39	1.2005E+6	4.4831	Inf	-1.9
470.55	1.2010E+6	4.4873	0.0409	-9.5
470.77	1.2015E+6	4.4774	0.0419	-1.7
470.97	1.2020E+6	4.4887	0.0404	+2.8
471.17	1.2025E+6	4.4831	0.0411	-8.9
471.35	1.2030E+6	4.4915	0.0411	+2.4
471.52	1.2035E+6	4.4873	0.0406	-5.9
471.68	1.2040E+6	4.4774	0.0416	+363.9
471.85	1.2045E+6	4.4845	Inf	-24.0
472.02	1.2050E+6	4.4760	0.0413	-6.7
472.18	1.2055E+6	4.4845	Inf	-365.6
472.37	1.2060E+6	4.4816	0.0413	-7.0
472.56	1.2065E+6	4.4901	Inf	-367.4
472.75	1.2070E+6	4.4802	0.0409	-9.3
472.93	1.2075E+6	4.4831	Inf	-1.3
473.10	1.2080E+6	4.4845	0.0381	-10.7
473.31	1.2085E+6	4.4816	Inf	+360.0
473.50	1.2090E+6	4.4901	0.0417	-3.3
473.70	1.2095E+6	4.4802	0.0401	-4.6
473.89	1.2100E+6	4.4873	Inf	+360.9
474.08	1.2105E+6	4.4816	0.0404	-5.2
474.30	1.2110E+6	4.4831	0.0408	-11.1
474.46	1.2115E+6	4.4859	Inf	-354.6
474.64	1.2120E+6	4.4788	Inf	-7.4
474.83	1.2125E+6	4.4788	0.0404	-0.4
474.99	1.2130E+6	4.4788	Inf	-358.7
475.18	1.2135E+6	4.4901	Inf	+358.7
475.36	1.2140E+6	4.4802	0.0402	-5.9
475.56	1.2145E+6	4.4873	Inf	+Inf
475.74	1.2150E+6	4.4760	0.0414	-6.3
475.94	1.2155E+6	4.4816	0.0404	-8.5
476.11	1.2160E+6	4.4859	Inf	-15.8
476.29	1.2165E+6	4.4703	Inf	-357.6
476.47	1.2170E+6	4.4845	Inf	+344.0
476.66	1.2175E+6	4.4788	Inf	+350.3
476.82	1.2180E+6	4.4816	Inf	-20.2
477.01	1.2185E+6	4.4845	0.0413	-4.2
477.19	1.2190E+6	4.4760	Inf	-2.4
477.37	1.2195E+6	4.4816	0.0397	-0.9
477.55	1.2200E+6	4.4845	0.0415	+0.9
477.74	1.2205E+6	4.4788	Inf	+352.8
477.94	1.2210E+6	4.4774	Inf	-16.8
478.10	1.2215E+6	4.4802	Inf	-371.0
478.27	1.2220E+6	4.4746	Inf	+357.8
478.44	1.2225E+6	4.4802	Inf	+329.7
478.60	1.2230E+6	4.4831	0.0402	-6.2
478.80	1.2235E+6	4.4802	0.0410	-2.6
478.99	1.2240E+6	4.4802	0.0410	-4.2
479.15	1.2245E+6	4.4859	Inf	+363.3
479.34	1.2250E+6	4.4746	0.0376	-14.6
479.53	1.2255E+6	4.4816	Inf	+362.0
479.72	1.2260E+6	4.4831	0.0416	+0.0
479.90	1.2265E+6	4.4774	Inf	-357.1
480.07	1.2270E+6	4.4887	0.0406	-5.5
480.25	1.2275E+6	4.4717	0.0409	-8.4
480.43	1.2280E+6	4.4831	0.0418	+361.8
480.63	1.2285E+6	4.4802	0.0418	-12.8
480.80	1.2290E+6	4.4802	Inf	+351.1
480.95	1.2295E+6	4.4760	0.0410	-11.7
481.11	1.2300E+6	4.4788	Inf	-359.1
481.28	1.2305E+6	4.4802	Inf	+333.3
481.46	1.2310E+6	4.4873	0.0395	-2.2
481.66	1.2315E+6	4.4675	0.0421	+4.4
481.86	1.2320E+6	4.4788	Inf	+344.5
482.03	1.2325E+6	4.4802	Inf	-3.5
482.19	1.2330E+6	4.4831	Inf	-363.1
482.38	1.2335E+6	4.4717	0.0389	-2.4
482.56	1.2340E+6	4.4760	0.0396	-1.8
482.73	1.2345E+6	4.4845	Inf	+348.0
482.91	1.2350E+6	4.4746	Inf	-10.9
483.09	1.2355E+6	4.4788	Inf	-370.7
483.26	1.2360E+6	4.4760	Inf	-20.0
483.41	1.2365E+6	4.4788	Inf	+353.1
483.57	1.2370E+6	4.4746	Inf	-12.0
483.74	1.2375E+6	4.4774	0.0377	-3.3
483.91	1.2380E+6	4.4859	Inf	+3.3
484.11	1.2385E+6	4.4774	Inf	-30.8
484.29	1.2390E+6	4.4689	Inf	-360.0
484.45	1.2395E+6	4.4760	Inf	+353.8
484.62	1.2400E+6	4.4732	0.0415	+357.5
484.81	1.2405E+6	4.4788	Inf	-370.3
484.97	1.2410E+6	4.4746	0.0399	-6.0
485.15	1.2415E+6	4.4873	Inf	+337.5
485.32	1.2420E+6	4.4689	Inf	-5.8
485.50	1.2425E+6	4.4802	Inf	-5.8
485.67	1.2430E+6	4.4760	Inf	+349.7
485.84	1.2435E+6	4.4760	Inf	-358.9
486.02	1.2440E+6	4.4760	0.0403	-4.5
486.17	1.2445E+6	4.4746	0.0405	-7.8
486.35	1.2450E+6	4.4788	Inf	-10.5
486.52	1.2455E+6	4.4859	0.0400	-0.2
486.72	1.2460E+6	4.4788	Inf	-14.6
486.92	1.2465E+6	4.4788	0.0392	-2.5
487.08	1.2470E+6	4.4732	Inf	+0.4
487.25	1.2475E+6	4.4774	Inf	+349.0
487.40	1.2480E+6	4.4746	Inf	-3.6
487.57	1.2485E+6	4.4816	Inf	+348.5
487.73	1.2490E+6	4.4802	Inf	-370.6
487.90	1.2495E+6	4.4816	0.0399	-0.9
488.07	1.2500E+6	4.4760	0.0409	-7.7
488.25	1.2505E+6	4.4760	0.0406	+361.1
488.42	1.2510E+6	4.4845	0.0396	-2.5
488.63	1.2515E+6	4.4661	Inf	-14.4
488.81	1.2520E+6	4.4816	Inf	-359.3
488.98	1.2525E+6	4.4774	0.0412	-5.9
489.16	1.2530E+6	4.4717	Inf	-368.4
489.33	1.2535E+6	4.4831	Inf	-17.4
489.51	1.2540E+6	4.4774	Inf	-12.9
489.68	1.2545E+6	4.4816	0.0400	-4.5
489.85	1.2550E+6	4.4845	0.0415	+356.4
490.05	1.2555E+6	4.4746	0.0379	-9.9
490.23	1.2560E+6	4.4746	0.0392	-1.1
490.41	1.2565E+6	4.4703	Inf	-356.6
490.59	1.2570E+6	4.4816	0.0418	+366.8
490.78	1.2575E+6	4.4732	Inf	+344.6
490.94	1.2580E+6	4.4746	0.0415	+3.2
491.11	1.2585E+6	4.4732	0.0397	-9.7
491.29	1.2590E+6	4.4760	Inf	+360.7
491.48	1.2595E+6	4.4788	Inf	-362.9
491.64	1.2600E+6	4.4831	Inf	+347.8
491.81	1.2605E+6	4.4703	0.0391	-2.3
491.96	1.2610E+6	4.4746	0.0404	-6.8
492.12	1.2615E+6	4.4703	0.0404	-6.8
492.29	1.2620E+6	4.4746	Inf	-10.6
492.46	1.2625E+6	4.4760	Inf	+1.6
492.62	1.2630E+6	4.4760	Inf	-366.1
492.79	1.2635E+6	4.4774	Inf	+364.3
492.95	1.2640E+6	4.4760	Inf	+2.5
493.14	1.2645E+6	4.4746	Inf	+3.2
493.30	1.2650E+6	4.4689	Inf	+356.4
493.47	1.2655E+6	4.4774	Inf	-363.9
493.64	1.2660E+6	4.4732	0.0399	-8.7
493.80	1.2665E+6	4.4689	Inf	+Inf
493.97	1.2670E+6	4.4703	0.0393	-6.4
494.14	1.2675E+6	4.4717	Inf	+357.7
494.30	1.2680E+6	4.4675	0.0403	-2.5
494.49	1.2685E+6	4.4746	Inf	+344.4
494.65	1.2690E+6	4.4831	0.0407	+0.0
494.80	1.2695E+6	4.4732	Inf	-7.6
494.98	1.2700E+6	4.4703	0.0399	-10.0
495.17	1.2705E+6	4.4618	Inf	+358.6
495.33	1.2710E+6	4.4661	Inf	+346.5
495.50	1.2715E+6	4.4732	Inf	+326.1
495.65	1.2720E+6	4.4689	Inf	+353.6
495.80	1.2725E+6	4.4703	0.0403	-0.7
495.98	1.2730E+6	4.4746	Inf	+364.1
496.15	1.2735E+6	4.4746	0.0401	+5.7
496.33	1.2740E+6	4.4703	0.0401	+0.2
496.50	1.2745E+6	4.4746	Inf	+Inf
496.66	1.2750E+6	4.4732	0.0394	-4.6
496.85	1.2755E+6	4.4732	Inf	-9.0
497.01	1.2760E+6	4.4746	Inf	-365.8
497.18	1.2765E+6	4.4661	0.0397	-6.4
497.35	1.2770E+6	4.4746	0.0401	-4.8
497.50	1.2775E+6	4.4703	0.0397	-2.8
497.66	1.2780E+6	4.4717	0.0398	-4.6
497.81	1.2785E+6	4.4703	0.0399	-9.9
497.96	1.2790E+6	4.4717	Inf	+Inf
498.11	1.2795E+6	4.4746	Inf	-363.2
498.28	1.2800E+6	4.4675	Inf	+0.2
498.44	1.2805E+6	4.4661	Inf	-367.9
498.63	1.2810E+6	4.4675	Inf	-360.2
498.79	1.2815E+6	4.4717	0.0383	-7.8
498.98	1.2820E+6	4.4732	Inf	+360.2
499.14	1.2825E+6	4.4717	0.0397	-1.2
499.32	1.2830E+6	4.4732	Inf	+344.5
499.49	1.2835E+6	4.4703	0.0397	-4.4
499.66	1.2840E+6	4.4732	Inf	-15.9
499.82	1.2845E+6	4.4675	Inf	-368.3
499.99	1.2850E+6	4.4774	0.0388	-6.0
500.17	1.2855E+6	4.4717	Inf	-15.5
500.34	1.2860E+6	4.4746	0.0404	-9.5
500.54	1.2865E+6	4.4732	Inf	-370.9
500.70	1.2870E+6	4.4703	Inf	-360.2
500.87	1.2875E+6	4.4717	0.0401	+0.5
501.06	1.2880E+6	4.4689	0.0394	-4.2
501.22	1.2885E+6	4.4774	Inf	+353.1
501.40	1.2890E+6	4.4732	0.0388	-1.6
501.58	1.2895E+6	4.4689	0.0391	+0.2
501.75	1.2900E+6	4.4732	Inf	+357.2
501.92	1.2905E+6	4.4647	Inf	+350.2
502.09	1.2910E+6	4.4732	0.0397	-1.4
502.24	1.2915E+6	4.4604	Inf	+359.1
502.40	1.2920E+6	4.4618	Inf	+7.9
502.57	1.2925E+6	4.4689	Inf	+342.8
502.74	1.2930E+6	4.4717	0.0395	-0.2
502.90	1.2935E+6	4.4647	Inf	+360.5
503.07	1.2940E+6	4.4703	0.0388	-2.8
503.27	1.2945E+6	4.4647	Inf	-10.4
503.43	1.2950E+6	4.4732	Inf	+355.3
503.58	1.2955E+6	4.4703	0.0391	-5.6
503.76	1.2960E+6	4.4604	Inf	-365.1
503.93	1.2965E+6	4.4647	0.0411	-5.6
504.10	1.2970E+6	4.4661	Inf	+343.4
504.26	1.2975E+6	4.4732	Inf	+346.0
504.42	1.2980E+6	4.4732	0.0401	-7.0
504.60	1.2985E+6	4.4675	Inf	+347.9
504.76	1.2990E+6	4.4732	0.0399	-0.9
504.93	1.2995E+6	4.4717	Inf	+348.8
505.10	1.3000E+6	4.4746	Inf	+359.1
505.28	1.3005E+6	4.4732	0.0407	-5.1
505.45	1.3010E+6	4.4675	0.0401	-9.4
505.63	1.3015E+6	4.4703	0.0390	-3.0
505.79	1.3020E+6	4.4717	Inf	-7.5
505.96	1.3025E+6	4.4661	Inf	-5.2
506.14	1.3030E+6	4.4717	Inf	-366.1
506.31	1.3035E+6	4.4590	Inf	-365.9
506.48	1.3040E+6	4.4675	Inf	-11.7
506.62	1.3045E+6	4.4661	Inf	+344.9
506.79	1.3050E+6	4.4661	0.0390	-2.6
506.96	1.3055E+6	4.4675	0.0389	-4.2
507.16	1.3060E+6	4.4604	Inf	+354.1
507.32	1.3065E+6	4.4633	0.0392	-7.8
507.51	1.3070E+6	4.4689	Inf	+2.6
507.67	1.3075E+6	4.4661	Inf	-356.0
507.82	1.3080E+6	4.4717	Inf	-354.6
507.99	1.3085E+6	4.4647	Inf	+3.5
508.16	1.3090E+6	4.4604	0.0393	-8.0
508.31	1.3095E+6	4.4675	Inf	-13.2
508.47	1.3100E+6	4.4703	0.0387	-0.5
508.65	1.3105E+6	4.4675	0.0383	-6.8
508.82	1.3110E+6	4.4689	Inf	-368.5
508.99	1.3115E+6	4.4647	0.0390	-3.5
509.17	1.3120E+6	4.4604	Inf	+0.0
509.34	1.3125E+6	4.4703	Inf	-11.1
509.50	1.3130E+6	4.4661	Inf	+Inf
509.67	1.3135E+6	4.4732	0.0390	-2.4
509.84	1.3140E+6	4.4675	0.0403	+4.5
510.04	1.3145E+6	4.4633	Inf	+2.1
510.20	1.3150E+6	4.4604	Inf	-11.8
510.35	1.3155E+6	4.4633	Inf	+350.3
510.52	1.3160E+6	4.4647	Inf	-356.9
510.68	1.3165E+6	4.4661	Inf	-8.3
510.85	1.3170E+6	4.4675	0.0387	-5.9
511.05	1.3175E+6	4.4590	0.0398	+0.0
511.23	1.3180E+6	4.4661	0.0396	-9.0
511.40	1.3185E+6	4.4689	Inf	+Inf
511.55	1.3190E+6	4.4661	Inf	-365.7
511.70	1.3195E+6	4.4604	Inf	-14.5
511.87	1.3200E+6	4.4675	0.0391	+3.3
512.03	1.3205E+6	4.4590	Inf	+339.3
512.20	1.3210E+6	4.4647	0.0390	-10.2
512.36	1.3215E+6	4.4604	0.0403	-5.0
512.55	1.3220E+6	4.4618	Inf	+360.0
512.71	1.3225E+6	4.4689	Inf	+Inf
512.88	1.3230E+6	4.4604	Inf	+Inf
513.04	1.3235E+6	4.4618	Inf	+356.7
513.21	1.3240E+6	4.4675	Inf	+351.4
513.38	1.3245E+6	4.4661	Inf	-19.8
513.53	1.3250E+6	4.4661	Inf	-18.4
513.70	1.3255E+6	4.4633	Inf	-365.7
513.86	1.3260E+6	4.4633	0.0410	+365.3
514.01	1.3265E+6	4.4590	0.0387	-6.0
514.18	1.3270E+6	4.4647	Inf	+Inf
514.34	1.3275E+6	4.4647	Inf	-370.3
514.51	1.3280E+6	4.4633	Inf	+355.0
514.67	1.3285E+6	4.4675	Inf	+355.9
514.86	1.3290E+6	4.4618	Inf	+345.9
515.02	1.3295E+6	4.4675	Inf	+5.7
515.19	1.3300E+6	4.4604	Inf	-0.7
515.34	1.3305E+6	4.4633	Inf	+3.6
515.51	1.3310E+6	4.4618	0.0398	-7.4
515.67	1.3315E+6	4.4604	Inf	+1.2
515.84	1.3320E+6	4.4576	0.0385	-12.7
516.00	1.3325E+6	4.4548	Inf	+351.6
516.19	1.3330E+6	4.4618	Inf	-363.6
516.37	1.3335E+6	4.4590	Inf	+357.4
516.52	1.3340E+6	4.4675	Inf	-372.0
516.69	1.3345E+6	4.4647	Inf	+352.1
516.87	1.3350E+6	4.4618	0.0391	-7.4
517.05	1.3355E+6	4.4604	0.0388	-13.5
517.24	1.3360E+6	4.4562	Inf	+351.6
517.40	1.3365E+6	4.4590	Inf	+349.7
517.57	1.3370E+6	4.4562	Inf	-12.5
517.74	1.3375E+6	4.4519	0.0385	-7.2
517.93	1.3380E+6	4.4675	Inf	-2.6
518.12	1.3385E+6	4.4675	0.0393	+349.9
518.28	1.3390E+6	4.4675	0.0391	+357.8
518.45	1.3395E+6	4.4689	Inf	+357.8
518.60	1.3400E+6	4.4548	0.0398	+2.4
518.77	1.3405E+6	4.4562	Inf	-359.3
518.97	1.3410E+6	4.4604	0.0386	-5.3
519.15	1.3415E+6	4.4562	Inf	+359.5
519.32	1.3420E+6	4.4604	Inf	+Inf
519.48	1.3425E+6	4.4562	0.0398	-0.5
519.66	1.3430E+6	4.4604	Inf	-5.1
519.83	1.3435E+6	4.4590	Inf	-356.9
520.00	1.3440E+6	4.4661	0.0389	-6.0
520.18	1.3445E+6	4.4562	Inf	-2.4
520.33	1.3450E+6	4.4548	Inf	+349.8
520.51	1.3455E+6	4.4661	0.0366	-3.2
520.71	1.3460E+6	4.4675	Inf	+339.2
520.88	1.3465E+6	4.4590	0.0410	-9.2
521.06	1.3470E+6	4.4618	0.0388	+0.7
521.24	1.3475E+6	4.4633	0.0393	-10.7
521.43	1.3480E+6	4.4633	Inf	+332.0
521.59	1.3485E+6	4.4618	0.0388	-3.2
521.76	1.3490E+6	4.4604	Inf	+358.8
521.93	1.3495E+6	4.4633	Inf	+363.6
522.11	1.3500E+6	4.4562	Inf	-10.5
522.27	1.3505E+6	4.4647	Inf	-14.5
522.42	1.3510E+6	4.4633	Inf	-23.8
522.59	1.3515E+6	4.4548	0.0388	-7.1
522.76	1.3520E+6	4.4675	0.0382	-5.4
522.94	1.3525E+6	4.4618	Inf	+363.2
523.12	1.3530E+6	4.4548	Inf	-370.9
523.30	1.3535E+6	4.4618	Inf	+350.8
523.49	1.3540E+6	4.4548	Inf	-5.4
523.66	1.3545E+6	4.4562	0.0379	-10.0
523.84	1.3550E+6	4.4633	0.0399	-3.9
524.02	1.3555E+6	4.4534	Inf	+349.5
524.21	1.3560E+6	4.4633	0.0392	-1.5
524.37	1.3565E+6	4.4604	0.0393	+0.2
524.54	1.3570E+6	4.4519	0.0386	-6.8
524.72	1.3575E+6	4.4633	0.0383	+2.2
524.89	1.3580E+6	4.4604	0.0382	-0.7
525.05	1.3585E+6	4.4548	Inf	-14.4
525.25	1.3590E+6	4.4647	Inf	-358.0
525.42	1.3595E+6	4.4576	Inf	+0.5
525.59	1.3600E+6	4.4534	0.0384	-9.6
525.75	1.3605E+6	4.4647	Inf	-9.6
525.92	1.3610E+6	4.4633	0.0397	-6.4
526.10	1.3615E+6	4.4633	Inf	+360.0
526.27	1.3620E+6	4.4590	Inf	-7.1
526.45	1.3625E+6	4.4647	Inf	+362.0
526.60	1.3630E+6	4.4548	0.0379	-5.4
526.80	1.3635E+6	4.4604	Inf	+Inf
526.97	1.3640E+6	4.4604	Inf	+Inf
527.13	1.3645E+6	4.4576	Inf	-363.4
527.30	1.3650E+6	4.4576	0.0384	-10.3
527.48	1.3655E+6	4.4491	0.0390	-3.4
527.68	1.3660E+6	4.4661	0.0387	-2.5
527.88	1.3665E+6	4.4534	Inf	+341.1
528.06	1.3670E+6	4.4661	Inf	-1.7
528.25	1.3675E+6	4.4562	Inf	+Inf
528.41	1.3680E+6	4.4576	Inf	+343.3
528.60	1.3685E+6	4.4604	0.0382	-8.1
528.76	1.3690E+6	4.4534	Inf	+350.6
528.95	1.3695E+6	4.4534	Inf	+360.2
529.11	1.3700E+6	4.4590	Inf	-371.6
529.29	1.3705E+6	4.4548	Inf	+350.1
529.46	1.3710E+6	4.4633	0.0358	-2.2
529.68	1.3715E+6	4.4505	Inf	-2.0
529.86	1.3720E+6	4.4633	0.0367	-9.6
530.04	1.3725E+6	4.4505	0.0386	+350.6
530.24	1.3730E+6	4.4576	0.0400	-1.0
530.44	1.3735E+6	4.4548	Inf	+1.0
530.62	1.3740E+6	4.4604	0.0387	-2.7
530.81	1.3745E+6	4.4548	Inf	-10.6
531.01	1.3750E+6	4.4576	0.0396	-4.2
531.21	1.3755E+6	4.4420	Inf	+Inf
531.37	1.3760E+6	4.4604	Inf	+360.5
531.55	1.3765E+6	4.4505	Inf	+4.9
531.74	1.3770E+6	4.4633	0.0384	-7.2
531.94	1.3775E+6	4.4505	0.0360	-3.2
532.15	1.3780E+6	4.4590	0.0379	+0.7
532.36	1.3785E+6	4.4519	0.0390	+354.1
532.54	1.3790E+6	4.4604	Inf	-368.7
532.72	1.3795E+6	4.4534	Inf	+Inf
532.90	1.3800E+6	4.4647	0.0378	-8.4
533.10	1.3805E+6	4.4548	Inf	+353.8
533.30	1.3810E+6	4.4604	0.0387	-1.0
533.47	1.3815E+6	4.4491	Inf	+Inf
533.65	1.3820E+6	4.4534	Inf	+350.8
533.82	1.3825E+6	4.4590	0.0380	-2.5
533.98	1.3830E+6	4.4463	0.0391	-4.5
534.18	1.3835E+6	4.4576	0.0393	-5.7
534.35	1.3840E+6	4.4491	Inf	+351.5
534.53	1.3845E+6	4.4661	0.0400	+363.7
534.70	1.3850E+6	4.4519	Inf	-370.5
534.88	1.3855E+6	4.4562	0.0387	-9.2
535.07	1.3860E+6	4.4491	0.0380	+351.0
535.23	1.3865E+6	4.4604	Inf	+348.5
535.40	1.3870E+6	4.4576	Inf	-21.2
535.58	1.3875E+6	4.4406	0.0387	-5.5
535.75	1.3880E+6	4.4562	0.0385	-1.8
535.93	1.3885E+6	4.4463	Inf	-359.3
536.11	1.3890E+6	4.4491	Inf	+338.0
536.28	1.3895E+6	4.4576	0.0377	-3.8
536.44	1.3900E+6	4.4519	Inf	+0.5
536.63	1.3905E+6	4.4604	0.0386	-7.5
536.81	1.3910E+6	4.4576	Inf	-12.5
536.98	1.3915E+6	4.4477	Inf	+365.0
537.16	1.3920E+6	4.4519	0.0381	-3.0
537.33	1.3925E+6	4.4534	Inf	-363.0
537.49	1.3930E+6	4.4505	Inf	+3.5
537.66	1.3935E+6	4.4519	Inf	+Inf
537.84	1.3940E+6	4.4576	0.0395	+364.8
538.04	1.3945E+6	4.4477	0.0371	-6.3
538.24	1.3950E+6	4.4519	0.0382	-3.8
538.42	1.3955E+6	4.4562	0.0361	-9.0
538.62	1.3960E+6	4.4562	0.0393	-0.5
538.81	1.3965E+6	4.4420	Inf	-14.3
539.01	1.3970E+6	4.4534	Inf	-358.2
539.17	1.3975E+6	4.4491	0.0393	-1.5
539.34	1.3980E+6	4.4548	Inf	+352.7
539.50	1.3985E+6	4.4534	0.0367	-5.3
539.69	1.3990E+6	4.4590	Inf	+Inf
539.86	1.3995E+6	4.4562	0.0378	-1.8
540.04	1.4000E+6	4.4548	0.0382	-1.3
540.24	1.4005E+6	4.4576	0.0396	-11.1
540.42	1.4010E+6	4.4449	Inf	-371.6
540.59	1.4015E+6	4.4491	0.0387	-4.0
540.77	1.4020E+6	4.4548	Inf	+359.0
540.92	1.4025E+6	4.4534	0.0389	-1.8
541.09	1.4030E+6	4.4519	Inf	+357.0
541.25	1.4035E+6	4.4435	0.0380	+5.3
541.43	1.4040E+6	4.4590	Inf	+349.9
541.60	1.4045E+6	4.4548	0.0385	-8.6
541.78	1.4050E+6	4.4534	0.0381	-0.5
541.95	1.4055E+6	4.4562	0.0379	-8.4
542.12	1.4060E+6	4.4548	Inf	-361.0
542.28	1.4065E+6	4.4562	0.0391	-4.6
542.50	1.4070E+6	4.4449	Inf	-23.5
542.68	1.4075E+6	4.4534	0.0369	-2.8
542.85	1.4080E+6	4.4505	0.0379	-3.0
543.03	1.4085E+6	4.4534	Inf	-367.3
543.20	1.4090E+6	4.4491	0.0376	-3.6
543.35	1.4095E+6	4.4534	0.0387	-7.4
543.50	1.4100E+6	4.4491	Inf	+363.8
543.68	1.4105E+6	4.4491	0.0380	-4.6
543.83	1.4110E+6	4.4477	Inf	+Inf
543.98	1.4115E+6	4.4519	Inf	+Inf
544.14	1.4120E+6	4.4463	Inf	+Inf
544.31	1.4125E+6	4.4505	Inf	-10.7
544.48	1.4130E+6	4.4449	Inf	+348.0
544.64	1.4135E+6	4.4505	Inf	+Inf
544.81	1.4140E+6	4.4519	Inf	+Inf
544.96	1.4145E+6	4.4435	0.0387	+0.3
545.13	1.4150E+6	4.4435	Inf	+348.0
545.29	1.4155E+6	4.4534	Inf	+361.0
545.44	1.4160E+6	4.4534	Inf	-6.9
545.61	1.4165E+6	4.4505	Inf	-7.9
545.79	1.4170E+6	4.4477	Inf	+353.6
545.96	1.4175E+6	4.4562	0.0357	-5.4
546.14	1.4180E+6	4.4534	0.0386	-9.5
546.33	1.4185E+6	4.4449	Inf	-7.7
546.49	1.4190E+6	4.4590	Inf	-10.5
546.67	1.4195E+6	4.4435	Inf	+352.8
546.86	1.4200E+6	4.4463	0.0383	-11.5
547.04	1.4205E+6	4.4477	0.0384	-7.7
547.21	1.4210E+6	4.4463	0.0377	-2.8
547.37	1.4215E+6	4.4491	0.0380	-4.1
547.54	1.4220E+6	4.4590	Inf	+350.5
547.72	1.4225E+6	4.4449	0.0378	-2.8
547.89	1.4230E+6	4.4491	0.0387	+1.5
548.05	1.4235E+6	4.4463	0.0392	+0.3
548.24	1.4240E+6	4.4519	Inf	+346.9
548.40	1.4245E+6	4.4491	Inf	+364.6
548.57	1.4250E+6	4.4519	0.0394	-7.9
548.74	1.4255E+6	4.4449	0.0388	-10.5
548.92	1.4260E+6	4.4534	0.0358	+1.3
549.10	1.4265E+6	4.4463	Inf	-11.0
549.28	1.4270E+6	4.4449	Inf	+350.0
549.45	1.4275E+6	4.4435	Inf	-370.8
549.62	1.4280E+6	4.4449	Inf	-359.5
549.77	1.4285E+6	4.4463	0.0374	-1.8
549.95	1.4290E+6	4.4435	Inf	-359.5
550.10	1.4295E+6	4.4491	Inf	+Inf
550.27	1.4300E+6	4.4491	0.0390	-3.6
550.45	1.4305E+6	4.4534	Inf	-1.3
550.60	1.4310E+6	4.4463	Inf	-359.0
550.76	1.4315E+6	4.4406	0.0379	+354.6
550.95	1.4320E+6	4.4420	0.0372	-4.4
551.13	1.4325E+6	4.4505	Inf	+349.7
551.28	1.4330E+6	4.4505	Inf	-0.8
551.45	1.4335E+6	4.4477	Inf	-7.0
551.63	1.4340E+6	4.4491	Inf	+346.3
551.80	1.4345E+6	4.4463	0.0374	-7.3
551.96	1.4350E+6	4.4449	0.0355	-12.1
552.13	1.4355E+6	4.4519	Inf	+347.3
552.30	1.4360E+6	4.4463	0.0373	-1.0
552.48	1.4365E+6	4.4392	0.0391	-5.4
552.66	1.4370E+6	4.4392	Inf	+0.5
552.85	1.4375E+6	4.4477	0.0378	+0.5
553.03	1.4380E+6	4.4435	Inf	+347.8
553.19	1.4385E+6	4.4420	Inf	-13.4
553.36	1.4390E+6	4.4378	Inf	+Inf
553.53	1.4395E+6	4.4449	Inf	+347.1
553.69	1.4400E+6	4.4449	Inf	+3.1
553.84	1.4405E+6	4.4477	Inf	+349.3
554.02	1.4410E+6	4.4449	0.0374	-4.7
554.19	1.4415E+6	4.4562	Inf	-364.4
554.37	1.4420E+6	4.4463	0.0380	+2.1
554.56	1.4425E+6	4.4449	Inf	-7.0
554.71	1.4430E+6	4.4392	Inf	+353.5
554.87	1.4435E+6	4.4406	Inf	+348.6
555.04	1.4440E+6	4.4463	Inf	-368.9
555.22	1.4445E+6	4.4463	Inf	-1.0
555.39	1.4450E+6	4.4420	0.0367	-12.8
555.57	1.4455E+6	4.4449	Inf	+349.3
555.74	1.4460E+6	4.4435	0.0375	+351.2
555.92	1.4465E+6	4.4420	0.0373	-1.8
556.09	1.4470E+6	4.4364	0.0382	-3.6
556.27	1.4475E+6	4.4420	Inf	+344.1
556.45	1.4480E+6	4.4406	Inf	-361.6
556.62	1.4485E+6	4.4321	0.0371	-6.5
556.80	1.4490E+6	4.4463	Inf	+348.8
556.97	1.4495E+6	4.4392	Inf	+357.9
557.12	1.4500E+6	4.4392	Inf	-10.5
557.27	1.4505E+6	4.4449	0.0367	+0.3
557.43	1.4510E+6	4.4420	0.0383	-11.3
557.62	1.4515E+6	4.4435	Inf	-11.2
557.77	1.4520E+6	4.4392	0.0363	-4.2
557.95	1.4525E+6	4.4420	Inf	-356.9
558.12	1.4530E+6	4.4449	Inf	+1.8
558.28	1.4535E+6	4.4463	Inf	-357.9
558.45	1.4540E+6	4.4392	Inf	+365.5
558.61	1.4545E+6	4.4336	Inf	+345.1
558.80	1.4550E+6	4.4505	Inf	-15.7
558.96	1.4555E+6	4.4420	Inf	+Inf
559.11	1.4560E+6	4.4364	0.0386	-0.8
559.30	1.4565E+6	4.4435	Inf	+347.9
559.46	1.4570E+6	4.4364	Inf	+6.6
559.63	1.4575E+6	4.4463	0.0369	+2.4
559.81	1.4580E+6	4.4392	0.0383	+11.0
560.01	1.4585E+6	4.4364	Inf	-20.2
560.18	1.4590E+6	4.4406	Inf	-354.2
560.33	1.4595E+6	4.4350	Inf	+Inf
560.48	1.4600E+6	4.4435	Inf	+347.9
560.64	1.4605E+6	4.4406	Inf	-371.9
560.81	1.4610E+6	4.4378	0.0386	-0.3
560.98	1.4615E+6	4.4364	0.0387	-0.5
561.14	1.4620E+6	4.4420	0.0365	-5.0
561.33	1.4625E+6	4.4435	0.0374	-7.4
561.49	1.4630E+6	4.4449	0.0377	-10.3
561.66	1.4635E+6	4.4449	0.0377	+0.0
561.82	1.4640E+6	4.4392	Inf	-10.0
561.99	1.4645E+6	4.4420	0.0365	-11.6
562.17	1.4650E+6	4.4350	Inf	-24.7
562.34	1.4655E+6	4.4420	Inf	-363.4
562.49	1.4660E+6	4.4505	0.0373	-7.9
562.64	1.4665E+6	4.4392	0.0378	-7.7
562.81	1.4670E+6	4.4477	0.0381	-7.1
562.97	1.4675E+6	4.4449	Inf	+364.8
563.14	1.4680E+6	4.4449	0.0371	+349.5
563.32	1.4685E+6	4.4350	Inf	+356.0
563.50	1.4690E+6	4.4321	Inf	-17.7
563.67	1.4695E+6	4.4336	Inf	+347.6
563.84	1.4700E+6	4.4392	Inf	+367.7
564.00	1.4705E+6	4.4392	Inf	+Inf
564.15	1.4710E+6	4.4449	Inf	-368.2
564.30	1.4715E+6	4.4378	Inf	-6.9
564.47	1.4720E+6	4.4293	0.0382	-7.2
564.67	1.4725E+6	4.4378	0.0380	-4.8
564.82	1.4730E+6	4.4364	0.0374	-14.5
565.00	1.4735E+6	4.4435	0.0373	+1.1
565.17	1.4740E+6	4.4364	0.0358	-2.1
565.35	1.4745E+6	4.4378	Inf	-11.2
565.52	1.4750E+6	4.4364	Inf	+1.1
565.68	1.4755E+6	4.4307	Inf	+Inf
565.83	1.4760E+6	4.4378	0.0375	-4.3
566.02	1.4765E+6	4.4293	Inf	+355.2
566.18	1.4770E+6	4.4350	0.0374	-2.4
566.35	1.4775E+6	4.4406	Inf	-29.2
566.51	1.4780E+6	4.4420	0.0379	-6.9
566.68	1.4785E+6	4.4350	Inf	+Inf
566.83	1.4790E+6	4.4364	Inf	-2.9
567.00	1.4795E+6	4.4406	Inf	-9.3
567.16	1.4800E+6	4.4420	Inf	+347.8
567.33	1.4805E+6	4.4392	0.0360	-4.0
567.51	1.4810E+6	4.4364	0.0365	-1.1
567.68	1.4815E+6	4.4279	0.0353	-2.9
567.85	1.4820E+6	4.4491	Inf	-8.0
568.01	1.4825E+6	4.4449	0.0367	-6.1
568.18	1.4830E+6	4.4378	0.0373	-9.6
568.36	1.4835E+6	4.4321	0.0372	-6.1
568.53	1.4840E+6	4.4364	Inf	+Inf
568.69	1.4845E+6	4.4321	Inf	-371.5
568.84	1.4850E+6	4.4350	Inf	-355.7
569.01	1.4855E+6	4.4406	Inf	-357.9
569.17	1.4860E+6	4.4350	0.0370	+1.1
569.34	1.4865E+6	4.4378	Inf	+360.8
569.51	1.4870E+6	4.4336	Inf	-367.0
569.67	1.4875E+6	4.4307	Inf	-11.5
569.83	1.4880E+6	4.4307	0.0371	-7.5
569.99	1.4885E+6	4.4336	0.0378	-9.7
570.16	1.4890E+6	4.4293	0.0374	+4.8
570.34	1.4895E+6	4.4378	0.0368	-4.8
570.51	1.4900E+6	4.4364	Inf	+354.9
570.67	1.4905E+6	4.4350	Inf	-361.3
570.84	1.4910E+6	4.4364	Inf	-374.8
571.00	1.4915E+6	4.4350	Inf	-360.8
571.17	1.4920E+6	4.4350	Inf	-10.2
571.32	1.4925E+6	4.4307	0.0372	-5.4
571.49	1.4930E+6	4.4336	0.0379	-3.0
571.65	1.4935E+6	4.4392	Inf	+Inf
571.82	1.4940E+6	4.4336	Inf	-369.7
572.00	1.4945E+6	4.4336	Inf	+Inf
572.17	1.4950E+6	4.4321	0.0363	-8.3
572.35	1.4955E+6	4.4307	0.0356	-8.4
572.53	1.4960E+6	4.4307	Inf	-368.4
572.70	1.4965E+6	4.4406	Inf	+Inf
572.85	1.4970E+6	4.4350	0.0379	-8.9
573.03	1.4975E+6	4.4350	0.0370	-5.9
573.22	1.4980E+6	4.4350	0.0364	-3.0
573.40	1.4985E+6	4.4321	Inf	+Inf
573.57	1.4990E+6	4.4321	0.0368	-4.0
573.73	1.4995E+6	4.4406	Inf	-367.8
573.88	1.5000E+6	4.4392	Inf	-24.3
574.05	1.5005E+6	4.4321	0.0370	-1.1
574.21	1.5010E+6	4.4336	0.0367	+353.0
574.38	1.5015E+6	4.4279	Inf	+357.8
574.55	1.5020E+6	4.4378	Inf	-18.6
574.70	1.5025E+6	4.4293	0.0362	-7.3
574.85	1.5030E+6	4.4307	0.0364	-4.1
575.00	1.5035E+6	4.4350	Inf	+349.2
575.16	1.5040E+6	4.4293	Inf	+340.8
575.33	1.5045E+6	4.4307	0.0367	+354.3
575.50	1.5050E+6	4.4279	Inf	+350.8
575.66	1.5055E+6	4.4251	Inf	+2.4
575.86	1.5060E+6	4.4307	Inf	-12.2
576.03	1.5065E+6	4.4364	0.0340	-9.2
576.21	1.5070E+6	4.4336	0.0371	-3.3
576.39	1.5075E+6	4.4336	Inf	+349.1
576.56	1.5080E+6	4.4364	Inf	-357.5
576.73	1.5085E+6	4.4293	Inf	-368.2
576.89	1.5090E+6	4.4237	0.0369	-12.2
577.09	1.5095E+6	4.4336	Inf	+5.7
577.27	1.5100E+6	4.4321	Inf	+358.9
577.44	1.5105E+6	4.4364	Inf	+341.3
577.58	1.5110E+6	4.4321	0.0371	-10.3
577.72	1.5115E+6	4.4364	0.0367	-8.4
577.87	1.5120E+6	4.4336	0.0367	+0.3
578.02	1.5125E+6	4.4364	0.0363	-2.5
578.19	1.5130E+6	4.4293	0.0375	-6.8
578.37	1.5135E+6	4.4321	Inf	+361.4
578.54	1.5140E+6	4.4279	Inf	+328.4
578.71	1.5145E+6	4.4293	0.0383	+361.9
578.86	1.5150E+6	4.4336	0.0364	-1.6
579.04	1.5155E+6	4.4321	Inf	-354.3
579.20	1.5160E+6	4.4336	Inf	-370.9
579.37	1.5165E+6	4.4350	Inf	-376.1
579.54	1.5170E+6	4.4279	0.0351	-0.3
579.74	1.5175E+6	4.4336	Inf	+342.8
579.90	1.5180E+6	4.4336	Inf	-366.0
580.05	1.5185E+6	4.4222	Inf	-367.6
580.24	1.5190E+6	4.4336	Inf	-356.2
580.42	1.5195E+6	4.4279	0.0377	+360.8
580.60	1.5200E+6	4.4237	Inf	-357.8
580.77	1.5205E+6	4.4265	Inf	+356.7
580.93	1.5210E+6	4.4293	0.0363	-3.8
581.13	1.5215E+6	4.4237	0.0367	-1.9
581.30	1.5220E+6	4.4336	0.0355	+3.8
581.50	1.5225E+6	4.4251	0.0373	-6.9
581.70	1.5230E+6	4.4279	Inf	+337.5
581.88	1.5235E+6	4.4237	Inf	+354.2
582.05	1.5240E+6	4.4265	0.0382	-10.7
582.22	1.5245E+6	4.4293	0.0345	+5.2
582.43	1.5250E+6	4.4293	Inf	-22.2
582.60	1.5255E+6	4.4392	0.0364	-3.3
582.78	1.5260E+6	4.4293	Inf	+354.0
582.95	1.5265E+6	4.4222	Inf	+341.1
583.13	1.5270E+6	4.4279	Inf	-355.1
583.31	1.5275E+6	4.4265	Inf	+Inf
583.50	1.5280E+6	4.4293	0.0349	-13.8
583.70	1.5285E+6	4.4293	Inf	-19.3
583.88	1.5290E+6	4.4321	Inf	+Inf
584.04	1.5295E+6	4.4251	Inf	-12.9
584.23	1.5300E+6	4.4251	Inf	+361.7
584.39	1.5305E+6	4.4237	Inf	+Inf
584.56	1.5310E+6	4.4194	0.0350	-8.6
584.71	1.5315E+6	4.4251	Inf	-11.3
584.86	1.5320E+6	4.4237	Inf	-1.4
585.02	1.5325E+6	4.4321	Inf	+Inf
585.23	1.5330E+6	4.4265	Inf	+334.9
585.41	1.5335E+6	4.4307	0.0368	-2.2
585.61	1.5340E+6	4.4265	Inf	+347.6
585.79	1.5345E+6	4.4265	Inf	+358.3
585.96	1.5350E+6	4.4251	Inf	+Inf
586.11	1.5355E+6	4.4336	Inf	+351.7
586.27	1.5360E+6	4.4265	0.0364	-6.4
586.46	1.5365E+6	4.4336	Inf	-365.0
586.64	1.5370E+6	4.4307	0.0355	-10.8
586.82	1.5375E+6	4.4279	Inf	-357.5
586.99	1.5380E+6	4.4251	Inf	-2.2
587.17	1.5385E+6	4.4293	0.0375	-3.3
587.37	1.5390E+6	4.4251	Inf	-22.5
587.55	1.5395E+6	4.4321	Inf	-355.3
587.72	1.5400E+6	4.4208	Inf	+359.4
587.90	1.5405E+6	4.4307	Inf	-15.8
588.07	1.5410E+6	4.4194	0.0372	-4.7
588.25	1.5415E+6	4.4279	0.0359	-3.9
588.45	1.5420E+6	4.4265	0.0361	-9.4
588.65	1.5425E+6	4.4208	Inf	-14.4
588.82	1.5430E+6	4.4265	Inf	-10.6
588.98	1.5435E+6	4.4279	Inf	-6.4
589.15	1.5440E+6	4.4237	Inf	-7.2
589.35	1.5445E+6	4.4222	Inf	-8.4
589.51	1.5450E+6	4.4265	0.0363	-2.2
589.68	1.5455E+6	4.4265	Inf	-14.4
589.83	1.5460E+6	4.4279	Inf	+348.3
590.01	1.5465E+6	4.4265	0.0365	-2.8
590.18	1.5470E+6	4.4265	0.0351	-14.5
590.35	1.5475E+6	4.4265	0.0378	+2.8
590.53	1.5480E+6	4.4208	Inf	+0.8
590.70	1.5485E+6	4.4265	0.0377	-2.2
590.86	1.5490E+6	4.4321	Inf	+Inf
591.03	1.5495E+6	4.4194	Inf	+Inf
591.19	1.5500E+6	4.4222	0.0372	-7.5
591.36	1.5505E+6	4.4265	Inf	+363.9
591.53	1.5510E+6	4.4222	0.0361	-8.9
591.69	1.5515E+6	4.4293	0.0374	-3.9
591.86	1.5520E+6	4.4237	0.0368	-9.5
592.06	1.5525E+6	4.4194	Inf	-14.5
592.23	1.5530E+6	4.4279	Inf	+363.6
592.39	1.5535E+6	4.4180	0.0355	-2.2
592.58	1.5540E+6	4.4265	Inf	-4.2
592.74	1.5545E+6	4.4222	Inf	+2.2
592.91	1.5550E+6	4.4293	Inf	-21.0
593.08	1.5555E+6	4.4194	Inf	+357.8
593.26	1.5560E+6	4.4265	Inf	-3.9
593.44	1.5565E+6	4.4237	Inf	-21.6
593.59	1.5570E+6	4.4279	Inf	+350.7
593.76	1.5575E+6	4.4279	Inf	-370.9
593.92	1.5580E+6	4.4237	0.0364	-8.7
594.12	1.5585E+6	4.4208	Inf	+Inf
594.29	1.5590E+6	4.4265	Inf	+Inf
594.44	1.5595E+6	4.4208	Inf	-14.3
594.59	1.5600E+6	4.4265	Inf	+363.1
594.75	1.5605E+6	4.4279	0.0367	+4.5
594.92	1.5610E+6	4.4138	Inf	-3.9
595.09	1.5615E+6	4.4251	0.0368	-9.8
595.24	1.5620E+6	4.4138	0.0377	+1.1
595.42	1.5625E+6	4.4237	0.0368	+4.8
595.60	1.5630E+6	4.4251	Inf	+Inf
595.77	1.5635E+6	4.4321	Inf	-371.5
595.95	1.5640E+6	4.4251	Inf	+336.3
596.14	1.5645E+6	4.4265	Inf	+347.1
596.32	1.5650E+6	4.4307	0.0371	-0.3
596.48	1.5655E+6	4.4152	Inf	+Inf
596.67	1.5660E+6	4.4180	Inf	-14.7
596.84	1.5665E+6	4.4208	0.0351	-8.2
597.01	1.5670E+6	4.4166	Inf	+1.1
597.18	1.5675E+6	4.4138	Inf	-14.1
597.33	1.5680E+6	4.4180	0.0344	+2.5
597.50	1.5685E+6	4.4251	Inf	-9.9
597.68	1.5690E+6	4.4279	0.0376	-7.1
597.87	1.5695E+6	4.4123	Inf	+Inf
598.03	1.5700E+6	4.4307	Inf	+347.3
598.21	1.5705E+6	4.4265	Inf	-371.9
598.40	1.5710E+6	4.4208	0.0372	+2.0
598.56	1.5715E+6	4.4293	0.0357	-6.0
598.75	1.5720E+6	4.4180	Inf	+341.4
598.93	1.5725E+6	4.4251	Inf	-363.1
599.11	1.5730E+6	4.4251	Inf	+353.8
599.28	1.5735E+6	4.4265	Inf	+Inf
599.44	1.5740E+6	4.4222	Inf	-14.5
599.61	1.5745E+6	4.4138	Inf	+334.4
599.78	1.5750E+6	4.4222	Inf	+Inf
599.93	1.5755E+6	4.4194	Inf	+361.4
600.09	1.5760E+6	4.4194	0.0375	-9.1
600.26	1.5765E+6	4.4251	Inf	-4.8
600.44	1.5770E+6	4.4123	Inf	-360.6
600.61	1.5775E+6	4.4321	Inf	+0.9
600.79	1.5780E+6	4.4109	0.0365	-6.5
600.99	1.5785E+6	4.4166	0.0358	-8.8
601.17	1.5790E+6	4.4208	Inf	-10.0
601.34	1.5795E+6	4.4180	Inf	+Inf
601.51	1.5800E+6	4.4208	0.0363	-2.0
601.67	1.5805E+6	4.4166	Inf	+Inf
601.84	1.5810E+6	4.4109	0.0369	-3.7
602.02	1.5815E+6	4.4208	Inf	-13.1
602.19	1.5820E+6	4.4208	0.0371	-6.6
602.36	1.5825E+6	4.4279	0.0359	-0.9
602.55	1.5830E+6	4.4166	0.0362	+353.2
602.75	1.5835E+6	4.4265	Inf	+Inf
602.92	1.5840E+6	4.4237	0.0345	-8.3
603.09	1.5845E+6	4.4194	Inf	+Inf
603.25	1.5850E+6	4.4208	Inf	+359.1
603.44	1.5855E+6	4.4180	0.0366	-0.3
603.62	1.5860E+6	4.4222	0.0352	-3.1
603.79	1.5865E+6	4.4138	0.0359	-1.7
603.95	1.5870E+6	4.4152	0.0362	-13.4
604.12	1.5875E+6	4.4251	Inf	-359.7
604.28	1.5880E+6	4.4067	Inf	-357.2
604.45	1.5885E+6	4.4138	Inf	-18.0
604.62	1.5890E+6	4.4222	Inf	-364.6
604.78	1.5895E+6	4.4152	0.0367	+2.0
604.95	1.5900E+6	4.4237	0.0368	+2.3
605.08	1.5905E+6	4.4138	0.0352	-3.2
605.25	1.5910E+6	4.4152	0.0359	-4.3
605.40	1.5915E+6	4.4109	Inf	-0.3
605.57	1.5920E+6	4.4194	0.0361	-9.5
605.73	1.5925E+6	4.4180	Inf	+358.3
605.88	1.5930E+6	4.4251	0.0356	-5.7
606.03	1.5935E+6	4.4109	Inf	-2.0
606.20	1.5940E+6	4.4152	Inf	-15.3
606.36	1.5945E+6	4.4109	Inf	-3.1
606.51	1.5950E+6	4.4180	Inf	+356.8
606.66	1.5955E+6	4.4138	Inf	-368.6
606.83	1.5960E+6	4.4152	0.0345	-4.3
606.99	1.5965E+6	4.4251	Inf	+354.2
607.14	1.5970E+6	4.4180	0.0371	-7.8
607.33	1.5975E+6	4.4123	Inf	-367.2
607.51	1.5980E+6	4.4166	Inf	+2.3
607.66	1.5985E+6	4.4138	Inf	+351.4
607.83	1.5990E+6	4.4138	Inf	+Inf
607.99	1.5995E+6	4.4138	0.0362	+1.4
608.14	1.6000E+6	4.4166	Inf	-0.6
608.29	1.6005E+6	4.4138	Inf	-366.3
608.44	1.6010E+6	4.4123	0.0384	-5.2
608.62	1.6015E+6	4.4152	0.0375	-6.6
608.79	1.6020E+6	4.4138	Inf	+Inf
608.96	1.6025E+6	4.4166	Inf	-15.0
609.12	1.6030E+6	4.4237	Inf	+4.9
609.27	1.6035E+6	4.4180	Inf	+344.7
609.42	1.6040E+6	4.4109	0.0365	-6.9
609.61	1.6045E+6	4.4095	Inf	+Inf
609.76	1.6050E+6	4.4095	Inf	+Inf
609.91	1.6055E+6	4.4180	Inf	-358.3
610.07	1.6060E+6	4.4123	0.0338	-7.5
610.25	1.6065E+6	4.4180	Inf	+360.6
610.42	1.6070E+6	4.4081	Inf	-363.5
610.55	1.6075E+6	4.4109	0.0363	-4.1
610.72	1.6080E+6	4.4138	Inf	-364.9
610.85	1.6085E+6	4.4109	Inf	-17.7
610.99	1.6090E+6	4.4109	Inf	-371.0
611.13	1.6095E+6	4.4166	0.0360	-6.1
611.30	1.6100E+6	4.4109	0.0358	-11.9
611.43	1.6105E+6	4.4152	Inf	-12.2
611.60	1.6110E+6	4.4152	Inf	-7.2
611.73	1.6115E+6	4.4067	Inf	-22.3
611.87	1.6120E+6	4.4123	0.0360	+3.2
612.00	1.6125E+6	4.4152	0.0341	-13.7
612.15	1.6130E+6	4.4123	0.0369	-4.7
612.32	1.6135E+6	4.4081	0.0355	-2.9
612.48	1.6140E+6	4.3996	Inf	-14.0
612.63	1.6145E+6	4.4152	0.0358	+0.9
612.76	1.6150E+6	4.4123	Inf	+359.7
612.93	1.6155E+6	4.4095	0.0348	-0.9
613.06	1.6160E+6	4.4081	0.0362	+357.1
613.23	1.6165E+6	4.4109	Inf	-364.1
613.38	1.6170E+6	4.4123	0.0342	-4.6
613.55	1.6175E+6	4.4081	Inf	-362.3
613.70	1.6180E+6	4.4138	0.0345	-2.0
613.83	1.6185E+6	4.4194	Inf	+352.4
614.00	1.6190E+6	4.4152	0.0373	-4.4
614.20	1.6195E+6	4.4138	0.0360	+0.0
614.38	1.6200E+6	4.4166	0.0356	+0.3
614.55	1.6205E+6	4.4222	Inf	+362.0
614.71	1.6210E+6	4.4109	Inf	+Inf
614.86	1.6215E+6	4.4194	Inf	+353.3
615.03	1.6220E+6	4.4180	0.0356	-12.8
615.19	1.6225E+6	4.4123	Inf	-0.6
615.36	1.6230E+6	4.4053	0.0370	-2.9
615.54	1.6235E+6	4.4010	0.0362	-7.3
615.71	1.6240E+6	4.4095	Inf	+Inf
615.88	1.6245E+6	4.4010	Inf	+353.6
616.04	1.6250E+6	4.4053	Inf	+355.3
616.21	1.6255E+6	4.4180	Inf	+352.1
616.37	1.6260E+6	4.3996	Inf	+Inf
616.54	1.6265E+6	4.4166	Inf	+355.3
616.71	1.6270E+6	4.4138	Inf	+2.4
616.87	1.6275E+6	4.4067	Inf	-17.9
617.04	1.6280E+6	4.4039	0.0345	-5.9
617.22	1.6285E+6	4.4067	Inf	+2.6
617.37	1.6290E+6	4.4109	Inf	+366.0
617.52	1.6295E+6	4.4095	Inf	-16.5
617.69	1.6300E+6	4.4081	0.0361	-1.2
617.87	1.6305E+6	4.4053	Inf	-364.0
618.04	1.6310E+6	4.4123	0.0356	-4.4
618.22	1.6315E+6	4.4081	0.0355	-9.7
618.39	1.6320E+6	4.4109	0.0360	-9.4
618.55	1.6325E+6	4.4180	Inf	+Inf
618.74	1.6330E+6	4.4053	0.0357	-362.0
618.90	1.6335E+6	4.4095	Inf	-5.6
619.05	1.6340E+6	4.4067	Inf	-0.3
619.22	1.6345E+6	4.4109	Inf	-8.8
619.38	1.6350E+6	4.4067	Inf	+343.0
619.55	1.6355E+6	4.4081	Inf	-2.1
619.72	1.6360E+6	4.4081	Inf	-15.0
619.88	1.6365E+6	4.4152	0.0364	-8.6
620.07	1.6370E+6	4.4138	Inf	+3.8
620.23	1.6375E+6	4.4081	Inf	-366.0
620.40	1.6380E+6	4.4039	Inf	+366.0
620.55	1.6385E+6	4.4279	Inf	+354.0
620.73	1.6390E+6	4.4123	Inf	-375.0
620.90	1.6395E+6	4.4208	0.0354	-5.6
621.07	1.6400E+6	4.4222	0.0361	-6.2
621.22	1.6405E+6	4.4152	Inf	+1.5
621.38	1.6410E+6	4.4251	0.0357	-5.3
621.55	1.6415E+6	4.4279	Inf	-9.7
621.73	1.6420E+6	4.4251	Inf	+364.0
621.91	1.6425E+6	4.4279	0.0375	+2.7
622.11	1.6430E+6	4.4180	Inf	+346.1
622.28	1.6435E+6	4.4109	0.0374	-5.6
622.45	1.6440E+6	4.4208	Inf	+352.3
622.61	1.6445E+6	4.4180	Inf	+351.4
622.78	1.6450E+6	4.4194	Inf	-3.9
622.93	1.6455E+6	4.4166	0.0358	+1.2
623.11	1.6460E+6	4.4293	Inf	+Inf
623.31	1.6465E+6	4.4138	Inf	+5.6
623.48	1.6470E+6	4.4208	Inf	+Inf
623.64	1.6475E+6	4.4166	0.0355	-11.3
623.79	1.6480E+6	4.4194	Inf	+Inf
623.94	1.6485E+6	4.4222	0.0363	-0.9
624.12	1.6490E+6	4.4307	0.0369	-0.9
624.31	1.6495E+6	4.4237	Inf	-364.0
624.49	1.6500E+6	4.4166	Inf	+351.0
624.66	1.6505E+6	4.4208	0.0352	+351.0
624.86	1.6510E+6	4.4180	0.0354	-0.3
625.02	1.6515E+6	4.4194	Inf	-4.8
625.19	1.6520E+6	4.4166	Inf	-8.6
625.34	1.6525E+6	4.4237	Inf	-372.0
625.49	1.6530E+6	4.4222	0.0363	+5.1
625.66	1.6535E+6	4.4166	0.0370	-5.4
625.80	1.6540E+6	4.4293	Inf	+355.0
625.99	1.6545E+6	4.4180	0.0339	-11.0
626.19	1.6550E+6	4.4208	Inf	+348.0
626.35	1.6555E+6	4.4123	Inf	+350.0
626.52	1.6560E+6	4.4109	Inf	-365.0
626.68	1.6565E+6	4.4138	Inf	+Inf
626.85	1.6570E+6	4.4194	0.0359	+352.0
627.04	1.6575E+6	4.4152	Inf	-361.0
627.20	1.6580E+6	4.4180	Inf	-13.7
627.35	1.6585E+6	4.4237	Inf	-14.6
627.52	1.6590E+6	4.4222	0.0366	+3.0
627.70	1.6595E+6	4.4251	0.0364	-5.1
627.88	1.6600E+6	4.4180	0.0347	-7.2
628.07	1.6605E+6	4.4166	Inf	-19.8
628.23	1.6610E+6	4.4166	Inf	+331.1
628.38	1.6615E+6	4.4180	0.0364	-6.6
628.55	1.6620E+6	4.4180	0.0362	-10.2
628.72	1.6625E+6	4.4166	Inf	+362.0
628.87	1.6630E+6	4.4237	0.0370	-5.7
629.03	1.6635E+6	4.4208	Inf	-366.0
629.20	1.6640E+6	4.4194	Inf	-368.0
629.38	1.6645E+6	4.4138	Inf	+Inf
629.53	1.6650E+6	4.4095	0.0356	+0.0
629.71	1.6655E+6	4.4109	0.0341	-5.1
629.90	1.6660E+6	4.4138	0.0361	-9.0
630.06	1.6665E+6	4.4152	Inf	+Inf
630.23	1.6670E+6	4.4194	0.0361	-1.8
630.40	1.6675E+6	4.4180	Inf	-359.0
630.56	1.6680E+6	4.4123	Inf	+347.0
630.73	1.6685E+6	4.4138	Inf	+362.0
630.91	1.6690E+6	4.4237	Inf	-14.2
631.06	1.6695E+6	4.4180	0.0357	-6.3
631.23	1.6700E+6	4.4053	Inf	-18.0
631.39	1.6705E+6	4.4166	0.0363	+7.8
631.58	1.6710E+6	4.4194	Inf	+333.6
631.74	1.6715E+6	4.4081	0.0362	+1.5
631.91	1.6720E+6	4.4123	0.0366	-0.6
632.08	1.6725E+6	4.4279	Inf	+Inf
632.26	1.6730E+6	4.4166	0.0362	-8.2
632.42	1.6735E+6	4.4123	0.0354	+0.3
632.62	1.6740E+6	4.4109	Inf	-367.0
632.79	1.6745E+6	4.4194	Inf	+Inf
632.94	1.6750E+6	4.4095	0.0343	-3.6
633.12	1.6755E+6	4.4123	0.0363	-11.2
633.30	1.6760E+6	4.4208	Inf	+350.0
633.46	1.6765E+6	4.4180	0.0344	-0.3
633.62	1.6770E+6	4.4123	Inf	+Inf
633.79	1.6775E+6	4.4095	Inf	+0.6
633.96	1.6780E+6	4.4180	0.0361	+3.0
634.15	1.6785E+6	4.4024	Inf	-11.8
634.32	1.6790E+6	4.4166	Inf	-14.8
634.47	1.6795E+6	4.4053	0.0359	-3.9
634.65	1.6800E+6	4.4166	0.0361	-3.9
634.84	1.6805E+6	4.4166	Inf	-365.0
635.00	1.6810E+6	4.4138	Inf	-16.3
635.17	1.6815E+6	4.4222	Inf	-13.9
635.33	1.6820E+6	4.4081	Inf	+Inf
635.49	1.6825E+6	4.4138	0.0361	+0.0
635.65	1.6830E+6	4.4222	Inf	+1.8
635.82	1.6835E+6	4.4138	0.0354	+350.0
636.00	1.6840E+6	4.4166	0.0363	-4.6
636.18	1.6845E+6	4.4109	Inf	+361.0
636.35	1.6850E+6	4.4152	Inf	-1.8
636.50	1.6855E+6	4.4166	Inf	+2.4
636.65	1.6860E+6	4.4123	Inf	+347.0
636.82	1.6865E+6	4.4081	0.0354	+1.5
637.00	1.6870E+6	4.4208	Inf	-13.4
637.16	1.6875E+6	4.4138	Inf	+Inf
637.35	1.6880E+6	4.4180	Inf	+361.0
637.51	1.6885E+6	4.4067	Inf	-17.0
637.68	1.6890E+6	4.4024	0.0332	-3.9
637.85	1.6895E+6	4.4166	Inf	-365.0
638.01	1.6900E+6	4.4138	Inf	+Inf
638.18	1.6905E+6	4.4138	Inf	-25.3
638.35	1.6910E+6	4.4222	0.0365	-6.4
638.53	1.6915E+6	4.4123	Inf	-360.0
638.68	1.6920E+6	4.4109	Inf	-3.7
638.85	1.6925E+6	4.4067	0.0367	-4.0
639.01	1.6930E+6	4.4152	0.0340	-2.4
639.18	1.6935E+6	4.4109	Inf	-6.7
639.34	1.6940E+6	4.4109	Inf	-361.0
639.51	1.6945E+6	4.4067	Inf	-362.0
639.66	1.6950E+6	4.4067	Inf	+Inf
639.83	1.6955E+6	4.4123	Inf	+361.0
639.99	1.6960E+6	4.4180	Inf	-5.2
640.12	1.6965E+6	4.4138	0.0340	-2.1
640.27	1.6970E+6	4.4081	0.0342	+1.2
640.46	1.6975E+6	4.4123	Inf	+347.0
640.62	1.6980E+6	4.4138	Inf	+347.0
640.79	1.6985E+6	4.4081	Inf	+350.0
640.96	1.6990E+6	4.4081	0.0350	-8.2
641.14	1.6995E+6	4.4109	0.0354	-9.5
641.31	1.7000E+6	4.4039	0.0347	-0.3
641.47	1.7005E+6	4.4123	0.0336	-8.6
641.65	1.7010E+6	4.3996	Inf	-372.0
641.82	1.7015E+6	4.4123	Inf	-362.0
641.97	1.7020E+6	4.4053	0.0333	-8.9
642.14	1.7025E+6	4.3968	0.0360	-11.0
642.32	1.7030E+6	4.4138	Inf	+Inf
642.49	1.7035E+6	4.4024	0.0356	-4.9
642.65	1.7040E+6	4.4010	Inf	+336.0
642.82	1.7045E+6	4.4081	0.0342	-6.4
643.00	1.7050E+6	4.4095	0.0361	-6.4
643.17	1.7055E+6	4.4039	0.0355	-7.9
643.35	1.7060E+6	4.4039	0.0351	-10.1
643.52	1.7065E+6	4.4067	Inf	+Inf
643.70	1.7070E+6	4.4010	Inf	-8.3
643.87	1.7075E+6	4.4123	0.0339	-13.5
644.05	1.7080E+6	4.4010	Inf	-363.0
644.22	1.7085E+6	4.3996	0.0359	-6.7
644.40	1.7090E+6	4.4109	Inf	-19.4
644.57	1.7095E+6	4.3996	0.0336	-12.6
644.73	1.7100E+6	4.4095	0.0365	-3.7
644.91	1.7105E+6	4.4039	Inf	-3.7
645.06	1.7110E+6	4.4010	Inf	+351.0
645.22	1.7115E+6	4.4024	Inf	-356.0
645.38	1.7120E+6	4.4024	0.0338	+0.3
645.56	1.7125E+6	4.4152	Inf	+345.0
645.73	1.7130E+6	4.4053	0.0350	-9.6
645.91	1.7135E+6	4.4024	0.0331	-5.9
646.10	1.7140E+6	4.4109	0.0372	-4.3
646.26	1.7145E+6	4.3968	Inf	-3.4
646.44	1.7150E+6	4.3996	0.0357	-6.2
646.64	1.7155E+6	4.4067	Inf	+350.0
646.81	1.7160E+6	4.4024	Inf	+340.0
646.96	1.7165E+6	4.3982	Inf	+Inf
647.14	1.7170E+6	4.4024	Inf	-360.0
647.31	1.7175E+6	4.4053	0.0355	-7.7
647.48	1.7180E+6	4.4109	0.0354	+3.7
647.64	1.7185E+6	4.4053	0.0351	-9.0
647.81	1.7190E+6	4.4053	0.0349	+358.0
647.97	1.7195E+6	4.4039	Inf	+Inf
648.14	1.7200E+6	4.4081	Inf	-370.0
648.29	1.7205E+6	4.4081	0.0354	-8.1
648.46	1.7210E+6	4.4039	Inf	+352.0
648.61	1.7215E+6	4.3968	0.0357	+3.4
648.79	1.7220E+6	4.4095	0.0344	-9.6
648.97	1.7225E+6	4.4067	Inf	+345.0
649.14	1.7230E+6	4.4039	0.0354	-1.6
649.30	1.7235E+6	4.4067	0.0328	-9.9
649.47	1.7240E+6	4.4053	0.0354	-8.7
649.65	1.7245E+6	4.3925	0.0338	+2.2
649.85	1.7250E+6	4.4109	Inf	-362.0
650.02	1.7255E+6	4.4067	Inf	-375.0
650.17	1.7260E+6	4.3968	Inf	+357.0
650.35	1.7265E+6	4.4123	0.0364	-9.3
650.59	1.7270E+6	4.3996	Inf	+344.0
650.72	1.7275E+6	4.4024	0.0329	-9.3
650.89	1.7280E+6	4.4081	0.0339	-1.9
651.07	1.7285E+6	4.4095	Inf	-0.9
651.24	1.7290E+6	4.3982	Inf	+Inf
651.40	1.7295E+6	4.4010	0.0347	-2.5
651.60	1.7300E+6	4.4053	0.0352	-9.7
651.73	1.7305E+6	4.4039	Inf	+350.0
651.90	1.7310E+6	4.3925	Inf	+353.0
652.07	1.7315E+6	4.4081	Inf	+364.0
652.27	1.7320E+6	4.4081	Inf	-13.4
652.42	1.7325E+6	4.3996	0.0353	-5.0
652.58	1.7330E+6	4.4081	0.0354	-9.4
652.73	1.7335E+6	4.4053	0.0350	-8.8
652.90	1.7340E+6	4.4039	Inf	-365.0
653.05	1.7345E+6	4.4010	Inf	-7.8
653.21	1.7350E+6	4.3940	0.0362	-3.4
653.41	1.7355E+6	4.4053	Inf	+Inf
653.60	1.7360E+6	4.4024	Inf	-371.0
653.76	1.7365E+6	4.4067	0.0346	-5.0
653.96	1.7370E+6	4.3982	0.0358	+3.1
654.16	1.7375E+6	4.4053	0.0348	-1.9
654.33	1.7380E+6	4.4053	Inf	+348.0
654.49	1.7385E+6	4.3982	Inf	+363.0
654.68	1.7390E+6	4.3996	Inf	-0.6
654.86	1.7395E+6	4.4053	0.0355	-0.9
655.01	1.7400E+6	4.4024	Inf	-366.0
655.14	1.7405E+6	4.3911	0.0352	-2.5
655.31	1.7410E+6	4.4053	0.0346	-5.0
655.51	1.7415E+6	4.4039	Inf	-11.6
655.67	1.7420E+6	4.4039	0.0352	-8.1
655.84	1.7425E+6	4.3954	0.0354	-5.6
656.01	1.7430E+6	4.4010	Inf	+347.0
656.17	1.7435E+6	4.3968	Inf	-365.0
656.34	1.7440E+6	4.4024	0.0347	-4.4
656.50	1.7445E+6	4.4053	0.0358	-7.2
656.64	1.7450E+6	4.3897	0.0354	+353.0
656.80	1.7455E+6	4.4024	0.0335	-14.2
656.99	1.7460E+6	4.4039	Inf	+Inf
657.15	1.7465E+6	4.3925	Inf	-372.0
657.35	1.7470E+6	4.3968	Inf	+347.0
657.52	1.7475E+6	4.4067	Inf	-15.2
657.70	1.7480E+6	4.4024	0.0339	-0.9
657.84	1.7485E+6	4.3954	Inf	+Inf
658.00	1.7490E+6	4.3982	0.0358	-2.5
658.18	1.7495E+6	4.3968	0.0356	-1.6
658.34	1.7500E+6	4.3940	0.0330	-5.3
658.50	1.7505E+6	4.4039	Inf	-12.3
658.68	1.7510E+6	4.3940	0.0362	-0.6
658.87	1.7515E+6	4.3996	Inf	+347.0
659.05	1.7520E+6	4.3954	Inf	-14.2
659.23	1.7525E+6	4.3982	Inf	+353.0
659.40	1.7530E+6	4.3996	Inf	+Inf
659.57	1.7535E+6	4.4024	Inf	+339.0
659.72	1.7540E+6	4.4039	Inf	+355.0
659.88	1.7545E+6	4.3982	0.0345	-3.8
660.08	1.7550E+6	4.3855	0.0358	-6.0
660.26	1.7555E+6	4.4010	0.0347	-7.0
660.43	1.7560E+6	4.3925	0.0338	-0.9
660.63	1.7565E+6	4.3954	0.0354	-2.2
660.81	1.7570E+6	4.3996	Inf	-7.6
660.98	1.7575E+6	4.3968	0.0346	-10.1
661.16	1.7580E+6	4.4024	0.0327	-0.3
661.35	1.7585E+6	4.3940	0.0361	-4.4
661.53	1.7590E+6	4.3968	Inf	+359.0
661.70	1.7595E+6	4.4010	Inf	+354.0
661.86	1.7600E+6	4.4010	Inf	-358.0
662.01	1.7605E+6	4.3968	0.0352	-12.7
662.21	1.7610E+6	4.3982	Inf	+Inf
662.38	1.7615E+6	4.3968	Inf	-365.0
662.53	1.7620E+6	4.3883	0.0329	+1.3
662.71	1.7625E+6	4.3925	0.0359	+1.3
662.88	1.7630E+6	4.4010	0.0355	-10.5
663.06	1.7635E+6	4.3897	Inf	-363.0
663.24	1.7640E+6	4.4081	Inf	-369.0
663.41	1.7645E+6	4.3954	0.0336	-11.4
663.61	1.7650E+6	4.4024	Inf	-10.8
663.77	1.7655E+6	4.3968	Inf	-360.0
663.94	1.7660E+6	4.4024	Inf	-366.0
664.12	1.7665E+6	4.3968	Inf	-9.9
664.31	1.7670E+6	4.4010	0.0345	-7.3
664.49	1.7675E+6	4.4010	0.0350	-1.3
664.66	1.7680E+6	4.3911	0.0327	+1.0
664.84	1.7685E+6	4.3911	0.0353	-5.4
665.02	1.7690E+6	4.3940	Inf	+Inf
665.17	1.7695E+6	4.3996	Inf	-371.0
665.34	1.7700E+6	4.3883	Inf	+Inf
665.50	1.7705E+6	4.3911	Inf	-362.0
665.67	1.7710E+6	4.4010	Inf	+Inf
665.84	1.7715E+6	4.3883	0.0340	-9.3
666.04	1.7720E+6	4.3940	0.0334	-1.3
666.19	1.7725E+6	4.3869	Inf	+353.0
666.55	1.7730E+6	4.3925	0.0354	+1.9
666.73	1.7735E+6	4.3911	0.0352	-6.4
666.90	1.7740E+6	4.3940	Inf	+Inf
667.05	1.7745E+6	4.3869	Inf	+346.0
667.20	1.7750E+6	4.3968	0.0332	-1.0
667.37	1.7755E+6	4.3841	0.0346	-10.6
667.53	1.7760E+6	4.3968	Inf	+Inf
667.70	1.7765E+6	4.3897	Inf	-363.0
667.87	1.7770E+6	4.3968	0.0339	-16.2
668.03	1.7775E+6	4.3897	Inf	+344.0
668.22	1.7780E+6	4.3982	0.0338	-3.8
668.38	1.7785E+6	4.3996	0.0347	-5.8
668.58	1.7790E+6	4.3996	Inf	+Inf
668.73	1.7795E+6	4.3798	Inf	+351.0
668.90	1.7800E+6	4.3940	0.0342	-14.1
669.06	1.7805E+6	4.3954	Inf	+342.0
669.21	1.7810E+6	4.3883	0.0348	+1.9
669.38	1.7815E+6	4.3911	0.0346	-5.8
669.54	1.7820E+6	4.3982	Inf	+348.0
669.70	1.7825E+6	4.3925	Inf	+353.0
669.85	1.7830E+6	4.4039	Inf	-9.0
670.03	1.7835E+6	4.3911	Inf	+350.0
670.19	1.7840E+6	4.3982	0.0333	-12.9
670.36	1.7845E+6	4.3911	Inf	-364.0
670.51	1.7850E+6	4.3940	Inf	+Inf
670.68	1.7855E+6	4.3954	0.0351	+1.3
670.86	1.7860E+6	4.3925	Inf	-359.0
671.02	1.7865E+6	4.3940	Inf	-363.0
671.19	1.7870E+6	4.3954	Inf	-4.2
671.36	1.7875E+6	4.3883	Inf	-2.3
671.51	1.7880E+6	4.3940	0.0330	-3.9
671.69	1.7885E+6	4.3982	Inf	+347.0
671.86	1.7890E+6	4.3869	Inf	-362.0
672.02	1.7895E+6	4.3812	0.0351	-2.6
672.19	1.7900E+6	4.3826	Inf	+345.0
672.36	1.7905E+6	4.3883	0.0351	-5.5
672.51	1.7910E+6	4.3897	Inf	+355.0
672.67	1.7915E+6	4.3911	0.0347	-5.2
672.82	1.7920E+6	4.3940	Inf	+Inf
672.99	1.7925E+6	4.3911	Inf	+352.0
673.15	1.7930E+6	4.3925	Inf	+1.3
673.32	1.7935E+6	4.3869	Inf	-21.3
673.50	1.7940E+6	4.3883	Inf	-365.0
673.67	1.7945E+6	4.3883	0.0352	+0.0
673.84	1.7950E+6	4.3869	Inf	-2.3
674.00	1.7955E+6	4.3784	0.0342	-5.5
674.17	1.7960E+6	4.3911	0.0345	-4.5
674.34	1.7965E+6	4.3869	Inf	-3.5
674.50	1.7970E+6	4.3968	0.0333	-4.8
674.67	1.7975E+6	4.3883	Inf	+Inf
674.83	1.7980E+6	4.3925	Inf	+350.0
674.98	1.7985E+6	4.3897	0.0339	-5.2
675.13	1.7990E+6	4.3925	0.0347	-10.0
675.33	1.7995E+6	4.3812	Inf	+354.0
675.48	1.8000E+6	4.3855	Inf	+360.0
675.63	1.8005E+6	4.3940	0.0349	-2.3
675.76	1.8010E+6	4.3940	Inf	+349.0
675.93	1.8015E+6	4.3812	0.0347	-2.3
676.10	1.8020E+6	4.3770	Inf	-354.0
676.26	1.8025E+6	4.3855	0.0344	-8.4
676.45	1.8030E+6	4.3940	Inf	+349.0
676.60	1.8035E+6	4.3897	Inf	+Inf
676.76	1.8040E+6	4.3925	0.0351	-3.3
676.95	1.8045E+6	4.3869	0.0341	+4.9
677.13	1.8050E+6	4.3911	Inf	+338.0
677.29	1.8055E+6	4.3911	0.0341	-7.8
677.46	1.8060E+6	4.3911	Inf	+352.0
677.61	1.8065E+6	4.3770	Inf	-13.6
677.78	1.8070E+6	4.3897	Inf	+Inf
677.95	1.8075E+6	4.3954	0.0353	-3.6
678.13	1.8080E+6	4.3883	Inf	-367.0
678.29	1.8085E+6	4.3925	0.0355	-6.2
678.46	1.8090E+6	4.3954	0.0339	-11.4
678.63	1.8095E+6	4.3869	Inf	+Inf
678.79	1.8100E+6	4.3855	Inf	-17.6
678.94	1.8105E+6	4.3869	Inf	+351.0
679.11	1.8110E+6	4.3798	0.0349	-2.9
679.29	1.8115E+6	4.3841	Inf	+355.0
679.46	1.8120E+6	4.3925	0.0344	-3.9
679.62	1.8125E+6	4.3826	0.0326	-0.3
679.81	1.8130E+6	4.3869	Inf	+352.0
679.97	1.8135E+6	4.3897	Inf	+Inf
680.14	1.8140E+6	4.3798	0.0358	-6.8
680.32	1.8145E+6	4.3770	Inf	+Inf
680.49	1.8150E+6	4.3869	Inf	+355.0
680.65	1.8155E+6	4.3883	Inf	+350.0
680.82	1.8160E+6	4.3812	0.0355	-5.6
680.99	1.8165E+6	4.3826	Inf	+Inf
681.15	1.8170E+6	4.3940	Inf	-370.0
681.32	1.8175E+6	4.3855	0.0334	-11.5
681.50	1.8180E+6	4.4081	Inf	+352.0
681.67	1.8185E+6	4.3812	0.0330	-11.1
681.87	1.8190E+6	4.3911	0.0346	-3.3
682.05	1.8195E+6	4.3826	0.0324	-11.4
682.22	1.8200E+6	4.3812	0.0347	-5.2
682.38	1.8205E+6	4.3841	Inf	+354.0
682.55	1.8210E+6	4.3812	Inf	-356.0
682.72	1.8215E+6	4.3897	Inf	-14.1
682.88	1.8220E+6	4.3883	Inf	+Inf
683.05	1.8225E+6	4.3925	0.0338	-8.5
683.22	1.8230E+6	4.3826	0.0328	-5.2
683.40	1.8235E+6	4.3826	0.0353	-3.3
683.58	1.8240E+6	4.3812	Inf	-16.7
683.73	1.8245E+6	4.3841	0.0338	-2.0
683.90	1.8250E+6	4.3812	0.0330	-9.2
684.07	1.8255E+6	4.3869	Inf	-366.0
684.21	1.8260E+6	4.3727	Inf	+344.0
684.38	1.8265E+6	4.3897	Inf	-9.5
684.55	1.8270E+6	4.3812	0.0350	-2.6
684.71	1.8275E+6	4.3841	Inf	+343.0
684.88	1.8280E+6	4.3883	0.0346	+2.6
685.06	1.8285E+6	4.3883	0.0348	-1.6
685.25	1.8290E+6	4.3911	0.0322	-16.5
685.41	1.8295E+6	4.3784	0.0344	-7.9
685.60	1.8300E+6	4.3812	0.0349	-0.3
685.76	1.8305E+6	4.3826	0.0350	-0.3
685.93	1.8310E+6	4.3812	Inf	+345.0
686.09	1.8315E+6	4.3911	0.0347	-1.0
686.26	1.8320E+6	4.3812	0.0359	-8.9
686.44	1.8325E+6	4.3798	Inf	-367.0
686.59	1.8330E+6	4.3713	Inf	-361.0
686.76	1.8335E+6	4.3713	0.0353	-5.6
686.91	1.8340E+6	4.3869	Inf	-16.8
687.07	1.8345E+6	4.3869	Inf	+Inf
687.24	1.8350E+6	4.3812	Inf	-17.5
687.39	1.8355E+6	4.3798	Inf	+Inf
687.56	1.8360E+6	4.3756	0.0329	-5.6
687.72	1.8365E+6	4.3897	Inf	+5.3
687.87	1.8370E+6	4.3756	0.0349	+0.0
688.06	1.8375E+6	4.3770	0.0355	-0.3
688.22	1.8380E+6	4.3756	Inf	-370.0
688.39	1.8385E+6	4.3798	Inf	-363.0
688.55	1.8390E+6	4.3883	0.0335	-13.6
688.72	1.8395E+6	4.3826	0.0348	+1.3
688.90	1.8400E+6	4.3699	0.0353	-12.6
689.09	1.8405E+6	4.3855	Inf	+Inf
689.25	1.8410E+6	4.3826	Inf	-29.2
689.42	1.8415E+6	4.3742	Inf	-356.0
689.59	1.8420E+6	4.3826	0.0353	-3.6
689.72	1.8425E+6	4.3855	0.0342	-10.9
689.88	1.8430E+6	4.3713	0.0341	-12.3
690.05	1.8435E+6	4.3841	Inf	+361.0
690.18	1.8440E+6	4.3812	Inf	+Inf
690.32	1.8445E+6	4.3685	0.0338	-1.0
690.48	1.8450E+6	4.3798	0.0332	-5.3
690.65	1.8455E+6	4.3784	0.0325	-1.7
690.82	1.8460E+6	4.3812	0.0333	-11.6
690.98	1.8465E+6	4.3756	0.0341	-3.3
691.15	1.8470E+6	4.3713	Inf	+345.0
691.32	1.8475E+6	4.3657	0.0341	-8.0
691.48	1.8480E+6	4.3742	0.0325	-12.6
691.66	1.8485E+6	4.3699	Inf	+Inf
691.85	1.8490E+6	4.3770	Inf	-25.3
692.03	1.8495E+6	4.3798	0.0322	-1.0
692.20	1.8500E+6	4.3756	0.0323	-6.0
692.36	1.8505E+6	4.3742	Inf	-1.7
692.53	1.8510E+6	4.3784	Inf	-6.0
692.68	1.8515E+6	4.3713	0.0338	-4.0
692.85	1.8520E+6	4.3770	0.0342	-9.7
692.99	1.8525E+6	4.3756	Inf	-4.7
693.14	1.8530E+6	4.3798	Inf	-13.7
693.29	1.8535E+6	4.3826	Inf	+356.0
693.44	1.8540E+6	4.3784	Inf	+Inf
693.59	1.8545E+6	4.3713	Inf	-362.0
693.76	1.8550E+6	4.3742	Inf	-358.0
693.89	1.8555E+6	4.3841	Inf	+Inf
694.02	1.8560E+6	4.3869	Inf	+Inf
694.17	1.8565E+6	4.3742	0.0331	-1.3
694.34	1.8570E+6	4.3756	Inf	+Inf
694.49	1.8575E+6	4.3798	0.0335	+2.7
694.66	1.8580E+6	4.3742	Inf	-7.0
694.81	1.8585E+6	4.3826	Inf	-370.0
694.96	1.8590E+6	4.3770	0.0329	+0.7
695.12	1.8595E+6	4.3869	Inf	+Inf
695.27	1.8600E+6	4.3798	Inf	+Inf
695.44	1.8605E+6	4.3826	Inf	+Inf
695.57	1.8610E+6	4.3784	0.0352	-5.7
695.74	1.8615E+6	4.3685	Inf	+Inf
695.90	1.8620E+6	4.3798	0.0332	-9.0
696.09	1.8625E+6	4.3826	0.0335	+0.0
696.25	1.8630E+6	4.3713	0.0347	-5.7
696.42	1.8635E+6	4.3841	Inf	-358.0
696.57	1.8640E+6	4.3671	0.0334	-6.7
696.75	1.8645E+6	4.3826	Inf	-371.0
696.92	1.8650E+6	4.3826	Inf	+Inf
