#date: 15.10.2020	time: 12:57:23
#t (s)	f (Hz)	A1 (V)	A2 (V)	phase (deg)
57.69	2.0000E+5	4.5249	1.1650	+179.0
57.90	2.0010E+5	4.5368	1.1681	+179.4
58.07	2.0020E+5	4.5354	1.1681	+178.7
58.23	2.0030E+5	4.5396	1.1681	+180.5
58.40	2.0040E+5	4.5354	1.1697	+180.1
58.59	2.0050E+5	4.5311	1.1693	+179.7
58.78	2.0060E+5	4.5396	1.1703	+178.9
58.98	2.0070E+5	4.5354	1.1708	+178.8
59.17	2.0080E+5	4.5354	1.1710	+179.8
59.35	2.0090E+5	4.5382	1.1710	+178.1
59.52	2.0100E+5	4.5297	1.1711	+180.0
59.70	2.0110E+5	4.5340	1.1722	+179.5
59.88	2.0120E+5	4.5326	1.1717	+178.3
60.07	2.0130E+5	4.5396	1.1725	+181.1
60.25	2.0140E+5	4.5368	1.1745	+179.9
60.43	2.0150E+5	4.5326	1.1751	+180.1
60.61	2.0160E+5	4.5368	1.1742	+180.2
60.80	2.0170E+5	4.5354	1.1742	+179.0
60.96	2.0180E+5	4.5396	1.1759	+179.2
61.16	2.0190E+5	4.5340	1.1759	+178.5
61.35	2.0200E+5	4.5396	1.1761	+179.8
61.55	2.0210E+5	4.5354	1.1765	+178.2
61.71	2.0220E+5	4.5368	1.1766	+179.3
61.90	2.0230E+5	4.5382	1.1775	+178.7
62.08	2.0240E+5	4.5368	1.1783	+179.4
62.28	2.0250E+5	4.5382	1.1799	+179.1
62.44	2.0260E+5	4.5396	1.1796	+178.0
62.63	2.0270E+5	4.5382	1.1800	+179.2
62.81	2.0280E+5	4.5340	1.1780	+178.5
62.99	2.0290E+5	4.5382	1.1807	+179.2
63.19	2.0300E+5	4.5439	1.1802	+179.4
63.39	2.0310E+5	4.5368	1.1814	+178.7
63.61	2.0320E+5	4.5382	1.1806	+178.5
63.79	2.0330E+5	4.5382	1.1824	+178.5
63.99	2.0340E+5	4.5340	1.1816	+179.9
64.17	2.0350E+5	4.5354	1.1814	+179.6
64.36	2.0360E+5	4.5396	1.1837	+179.3
64.52	2.0370E+5	4.5311	1.1836	+179.9
64.72	2.0380E+5	4.5382	1.1844	+179.6
64.92	2.0390E+5	4.5354	1.1836	+178.8
65.11	2.0400E+5	4.5354	1.1841	-179.4
65.30	2.0410E+5	4.5382	1.1844	+178.9
65.49	2.0420E+5	4.5368	1.1855	+179.5
65.67	2.0430E+5	4.5410	1.1854	+179.8
65.85	2.0440E+5	4.5340	1.1862	+178.7
66.05	2.0450E+5	4.5340	1.1874	+178.2
66.27	2.0460E+5	4.5368	1.1884	+180.0
66.44	2.0470E+5	4.5340	1.1889	+178.2
66.62	2.0480E+5	4.5354	1.1872	+181.0
66.80	2.0490E+5	4.5354	1.1885	+179.0
67.00	2.0500E+5	4.5368	1.1899	+179.8
67.18	2.0510E+5	4.5396	1.1901	+177.3
67.37	2.0520E+5	4.5382	1.1903	+180.0
67.53	2.0530E+5	4.5410	1.1911	+179.3
67.72	2.0540E+5	4.5340	1.1906	+177.6
67.92	2.0550E+5	4.5382	1.1906	+177.6
68.10	2.0560E+5	4.5368	1.1909	+179.4
68.28	2.0570E+5	4.5410	1.1920	+178.5
68.46	2.0580E+5	4.5354	1.1937	+178.9
68.70	2.0590E+5	4.5382	1.1930	+177.3
68.88	2.0600E+5	4.5368	1.1932	+178.3
69.05	2.0610E+5	4.5382	1.1946	+178.7
69.23	2.0620E+5	4.5354	1.1952	+179.3
69.43	2.0630E+5	4.5382	1.1959	+178.5
69.61	2.0640E+5	4.5354	1.1936	+178.9
69.80	2.0650E+5	4.5326	1.1967	+179.0
69.99	2.0660E+5	4.5354	1.1961	-179.3
70.18	2.0670E+5	4.5382	1.1971	+178.2
70.34	2.0680E+5	4.5382	1.1985	+178.4
70.55	2.0690E+5	4.5382	1.1974	-179.9
70.74	2.0700E+5	4.5368	1.1974	-179.6
70.91	2.0710E+5	4.5354	1.1988	+179.9
71.11	2.0720E+5	4.5368	1.1998	+179.9
71.29	2.0730E+5	4.5368	1.2002	+179.1
71.47	2.0740E+5	4.5368	1.2008	+178.9
71.64	2.0750E+5	4.5410	1.2001	+180.4
71.86	2.0760E+5	4.5425	1.2014	+178.0
72.06	2.0770E+5	4.5382	1.2022	+178.2
72.24	2.0780E+5	4.5425	1.2031	+179.7
72.44	2.0790E+5	4.5396	1.2015	+177.7
72.64	2.0800E+5	4.5396	1.2034	+178.1
72.81	2.0810E+5	4.5354	1.2028	+179.4
72.99	2.0820E+5	4.5382	1.2036	+178.8
73.20	2.0830E+5	4.5410	1.2042	-179.4
73.39	2.0840E+5	4.5368	1.2032	+179.3
73.60	2.0850E+5	4.5396	1.2045	+178.9
73.80	2.0860E+5	4.5396	1.2065	+178.9
74.00	2.0870E+5	4.5382	1.2072	+179.6
74.17	2.0880E+5	4.5396	1.2069	+177.8
74.35	2.0890E+5	4.5439	1.2075	+178.9
74.55	2.0900E+5	4.5382	1.2083	+178.9
74.73	2.0910E+5	4.5410	1.2094	+178.7
74.95	2.0920E+5	4.5326	1.2084	+178.5
75.17	2.0930E+5	4.5340	1.2100	+179.3
75.35	2.0940E+5	4.5410	1.2111	+179.5
75.55	2.0950E+5	4.5410	1.2114	+180.9
75.73	2.0960E+5	4.5382	1.2108	+179.1
75.92	2.0970E+5	4.5340	1.2106	+177.9
76.10	2.0980E+5	4.5354	1.2107	+179.0
76.28	2.0990E+5	4.5340	1.2106	+179.7
76.45	2.1000E+5	4.5453	1.2142	+179.9
76.66	2.1010E+5	4.5382	1.2123	+177.7
76.86	2.1020E+5	4.5396	1.2130	+179.5
77.03	2.1030E+5	4.5382	1.2121	+179.3
77.21	2.1040E+5	4.5410	1.2155	+178.6
77.44	2.1050E+5	4.5354	1.2133	+179.2
77.64	2.1060E+5	4.5340	1.2162	+180.8
77.84	2.1070E+5	4.5382	1.2175	-180.3
78.05	2.1080E+5	4.5354	1.2142	+179.7
78.24	2.1090E+5	4.5396	1.2169	+179.2
78.43	2.1100E+5	4.5368	1.2176	+178.8
78.61	2.1110E+5	4.5410	1.2185	+179.5
78.83	2.1120E+5	4.5396	1.2188	+179.6
79.01	2.1130E+5	4.5382	1.2191	-179.1
79.19	2.1140E+5	4.5396	1.2193	+178.4
79.37	2.1150E+5	4.5368	1.2195	+179.9
79.54	2.1160E+5	4.5382	1.2198	+178.7
79.72	2.1170E+5	4.5425	1.2209	+178.0
79.94	2.1180E+5	4.5410	1.2215	+179.5
80.11	2.1190E+5	4.5354	1.2199	+179.6
80.32	2.1200E+5	4.5382	1.2220	+178.5
80.52	2.1210E+5	4.5396	1.2224	+177.9
80.69	2.1220E+5	4.5382	1.2227	+180.1
80.87	2.1230E+5	4.5396	1.2236	+177.9
81.07	2.1240E+5	4.5354	1.2243	+179.1
81.24	2.1250E+5	4.5396	1.2234	+179.6
81.42	2.1260E+5	4.5382	1.2244	+179.4
81.60	2.1270E+5	4.5382	1.2264	+181.1
81.79	2.1280E+5	4.5410	1.2260	+180.4
82.00	2.1290E+5	4.5354	1.2270	+179.4
82.22	2.1300E+5	4.5382	1.2268	+178.9
82.38	2.1310E+5	4.5425	1.2264	+179.9
82.58	2.1320E+5	4.5396	1.2275	+179.2
82.78	2.1330E+5	4.5382	1.2271	+180.2
82.95	2.1340E+5	4.5382	1.2278	+178.9
83.13	2.1350E+5	4.5382	1.2299	+180.6
83.35	2.1360E+5	4.5396	1.2290	+178.6
83.53	2.1370E+5	4.5439	1.2305	+178.9
83.75	2.1380E+5	4.5396	1.2309	+179.2
83.93	2.1390E+5	4.5382	1.2292	+178.0
84.11	2.1400E+5	4.5382	1.2309	+179.0
84.30	2.1410E+5	4.5425	1.2311	+179.8
84.48	2.1420E+5	4.5425	1.2332	+178.6
84.70	2.1430E+5	4.5410	1.2315	+180.2
84.91	2.1440E+5	4.5368	1.2329	+178.1
85.11	2.1450E+5	4.5396	1.2323	+178.5
85.31	2.1460E+5	4.5368	1.2343	+178.8
85.50	2.1470E+5	4.5425	1.2346	+178.9
85.70	2.1480E+5	4.5410	1.2349	+177.8
85.89	2.1490E+5	4.5396	1.2356	+178.5
86.09	2.1500E+5	4.5425	1.2364	+178.8
86.28	2.1510E+5	4.5368	1.2364	+177.8
86.48	2.1520E+5	4.5396	1.2383	+178.5
86.67	2.1530E+5	4.5410	1.2366	+179.1
86.88	2.1540E+5	4.5410	1.2384	+179.8
87.07	2.1550E+5	4.5396	1.2394	+180.6
87.28	2.1560E+5	4.5396	1.2397	+178.2
87.44	2.1570E+5	4.5425	1.2396	+180.0
87.64	2.1580E+5	4.5396	1.2403	+179.6
87.82	2.1590E+5	4.5382	1.2414	-180.1
88.02	2.1600E+5	4.5382	1.2413	+180.4
88.20	2.1610E+5	4.5382	1.2414	+179.7
88.37	2.1620E+5	4.5439	1.2427	+179.3
88.57	2.1630E+5	4.5368	1.2441	+179.4
88.79	2.1640E+5	4.5396	1.2428	+177.3
88.99	2.1650E+5	4.5425	1.2448	+178.7
89.20	2.1660E+5	4.5382	1.2427	+178.2
89.42	2.1670E+5	4.5396	1.2439	-178.4
89.60	2.1680E+5	4.5382	1.2459	+178.7
89.79	2.1690E+5	4.5439	1.2478	-179.3
90.02	2.1700E+5	4.5410	1.2449	+178.6
90.20	2.1710E+5	4.5382	1.2471	+179.4
90.44	2.1720E+5	4.5410	1.2434	+180.3
90.63	2.1730E+5	4.5396	1.2475	+178.7
90.87	2.1740E+5	4.5396	1.2455	+179.7
91.07	2.1750E+5	4.5439	1.2496	+178.8
91.27	2.1760E+5	4.5382	1.2475	-179.2
91.50	2.1770E+5	4.5368	1.2483	+180.1
91.68	2.1780E+5	4.5410	1.2475	+178.8
91.86	2.1790E+5	4.5425	1.2500	+180.5
92.06	2.1800E+5	4.5410	1.2486	-179.6
92.25	2.1810E+5	4.5410	1.2493	-178.6
92.45	2.1820E+5	4.5425	1.2497	+180.4
92.63	2.1830E+5	4.5453	1.2493	+178.9
92.80	2.1840E+5	4.5425	1.2509	+180.6
92.98	2.1850E+5	4.5382	1.2516	+177.1
93.18	2.1860E+5	4.5396	1.2516	-178.8
93.34	2.1870E+5	4.5410	1.2526	+178.6
93.56	2.1880E+5	4.5396	1.2520	+179.6
93.76	2.1890E+5	4.5382	1.2538	+180.1
93.93	2.1900E+5	4.5425	1.2544	+178.4
94.13	2.1910E+5	4.5368	1.2541	+178.2
94.31	2.1920E+5	4.5410	1.2533	+180.6
94.51	2.1930E+5	4.5382	1.2561	-178.4
94.73	2.1940E+5	4.5396	1.2571	+180.4
94.89	2.1950E+5	4.5340	1.2584	+178.7
95.09	2.1960E+5	4.5396	1.2567	+178.7
95.29	2.1970E+5	4.5410	1.2571	-179.9
95.47	2.1980E+5	4.5396	1.2589	+177.7
95.69	2.1990E+5	4.5396	1.2592	+178.9
95.86	2.2000E+5	4.5439	1.2603	-179.2
96.07	2.2010E+5	4.5425	1.2579	+179.6
96.27	2.2020E+5	4.5396	1.2606	+178.0
96.47	2.2030E+5	4.5382	1.2601	+177.2
96.67	2.2040E+5	4.5382	1.2618	+179.4
96.85	2.2050E+5	4.5410	1.2618	+179.0
97.05	2.2060E+5	4.5396	1.2625	+179.4
97.25	2.2070E+5	4.5396	1.2619	+178.7
97.42	2.2080E+5	4.5410	1.2618	+179.1
97.62	2.2090E+5	4.5368	1.2640	+179.2
97.84	2.2100E+5	4.5382	1.2647	-179.3
98.00	2.2110E+5	4.5382	1.2663	+178.4
98.20	2.2120E+5	4.5382	1.2652	+179.0
98.38	2.2130E+5	4.5396	1.2657	+178.5
98.57	2.2140E+5	4.5425	1.2685	-179.6
98.78	2.2150E+5	4.5396	1.2661	+179.5
98.97	2.2160E+5	4.5368	1.2705	+179.8
99.17	2.2170E+5	4.5410	1.2667	-179.9
99.37	2.2180E+5	4.5453	1.2694	+178.4
99.56	2.2190E+5	4.5410	1.2704	+180.3
99.75	2.2200E+5	4.5410	1.2704	+179.7
99.91	2.2210E+5	4.5396	1.2704	+178.0
100.12	2.2220E+5	4.5368	1.2710	+178.9
100.28	2.2230E+5	4.5425	1.2710	+178.2
100.50	2.2240E+5	4.5410	1.2711	+178.5
100.68	2.2250E+5	4.5410	1.2719	+180.4
100.86	2.2260E+5	4.5368	1.2729	+180.2
101.06	2.2270E+5	4.5396	1.2735	+177.1
101.25	2.2280E+5	4.5425	1.2743	+177.3
101.44	2.2290E+5	4.5425	1.2746	+179.1
101.63	2.2300E+5	4.5425	1.2770	+179.1
101.80	2.2310E+5	4.5396	1.2763	+178.7
101.99	2.2320E+5	4.5425	1.2782	+178.2
102.22	2.2330E+5	4.5410	1.2779	+178.6
102.39	2.2340E+5	4.5368	1.2790	+178.8
102.59	2.2350E+5	4.5382	1.2777	-178.9
102.76	2.2360E+5	4.5439	1.2782	+178.2
102.97	2.2370E+5	4.5410	1.2777	+178.7
103.16	2.2380E+5	4.5410	1.2806	+177.4
103.34	2.2390E+5	4.5410	1.2799	+180.4
103.54	2.2400E+5	4.5368	1.2794	+177.5
103.72	2.2410E+5	4.5410	1.2809	+177.4
103.94	2.2420E+5	4.5396	1.2816	+178.7
104.14	2.2430E+5	4.5396	1.2842	+179.9
104.32	2.2440E+5	4.5368	1.2831	+177.9
104.50	2.2450E+5	4.5396	1.2821	+179.1
104.69	2.2460E+5	4.5453	1.2842	+178.5
104.90	2.2470E+5	4.5453	1.2859	+179.6
105.09	2.2480E+5	4.5439	1.2872	+178.4
105.27	2.2490E+5	4.5368	1.2862	+179.5
105.47	2.2500E+5	4.5396	1.2868	+179.2
105.64	2.2510E+5	4.5410	1.2881	+179.6
105.83	2.2520E+5	4.5382	1.2881	+180.4
106.02	2.2530E+5	4.5382	1.2881	-180.5
106.20	2.2540E+5	4.5453	1.2891	-178.8
106.42	2.2550E+5	4.5425	1.2886	+179.2
106.58	2.2560E+5	4.5396	1.2910	+179.1
106.78	2.2570E+5	4.5467	1.2910	+181.1
106.97	2.2580E+5	4.5439	1.2930	+178.4
107.17	2.2590E+5	4.5425	1.2933	+180.1
107.35	2.2600E+5	4.5396	1.2943	+179.9
107.55	2.2610E+5	4.5410	1.2926	+179.3
107.76	2.2620E+5	4.5354	1.2932	+179.5
107.95	2.2630E+5	4.5439	1.2953	+180.1
108.17	2.2640E+5	4.5439	1.2975	+180.4
108.35	2.2650E+5	4.5396	1.2937	+180.1
108.58	2.2660E+5	4.5410	1.2954	+179.4
108.80	2.2670E+5	4.5410	1.2974	+178.5
108.98	2.2680E+5	4.5354	1.2973	+177.0
109.18	2.2690E+5	4.5354	1.2985	+180.1
109.34	2.2700E+5	4.5382	1.2980	+179.3
109.53	2.2710E+5	4.5439	1.2967	+180.2
109.76	2.2720E+5	4.5382	1.3009	+178.5
109.96	2.2730E+5	4.5396	1.2997	+178.3
110.16	2.2740E+5	4.5425	1.2999	-179.6
110.36	2.2750E+5	4.5425	1.3021	+179.0
110.54	2.2760E+5	4.5453	1.3029	+178.0
110.72	2.2770E+5	4.5382	1.3032	+178.6
110.92	2.2780E+5	4.5382	1.3025	+181.1
111.12	2.2790E+5	4.5382	1.3042	+179.2
111.31	2.2800E+5	4.5396	1.3043	+179.2
111.49	2.2810E+5	4.5453	1.3035	+179.3
111.67	2.2820E+5	4.5467	1.3057	-178.9
111.87	2.2830E+5	4.5410	1.3063	+179.2
112.06	2.2840E+5	4.5396	1.3066	+178.4
112.24	2.2850E+5	4.5382	1.3074	+179.9
112.42	2.2860E+5	4.5439	1.3089	-179.2
112.62	2.2870E+5	4.5439	1.3074	+177.8
112.82	2.2880E+5	4.5425	1.3100	+180.2
113.02	2.2890E+5	4.5410	1.3104	+178.3
113.20	2.2900E+5	4.5396	1.3090	+180.2
113.40	2.2910E+5	4.5425	1.3097	+180.4
113.58	2.2920E+5	4.5410	1.3127	+179.3
113.78	2.2930E+5	4.5439	1.3130	-178.5
113.95	2.2940E+5	4.5467	1.3147	+177.9
114.15	2.2950E+5	4.5410	1.3135	+179.2
114.33	2.2960E+5	4.5368	1.3135	+178.4
114.53	2.2970E+5	4.5425	1.3145	+177.8
114.75	2.2980E+5	4.5425	1.3145	+180.1
114.92	2.2990E+5	4.5453	1.3156	+179.8
115.10	2.3000E+5	4.5396	1.3175	-180.0
115.30	2.3010E+5	4.5439	1.3166	+179.3
115.51	2.3020E+5	4.5425	1.3186	+178.5
115.70	2.3030E+5	4.5410	1.3193	+179.9
115.88	2.3040E+5	4.5453	1.3190	-178.4
116.05	2.3050E+5	4.5410	1.3200	+178.6
116.25	2.3060E+5	4.5410	1.3199	+181.3
116.43	2.3070E+5	4.5368	1.3188	+178.4
116.63	2.3080E+5	4.5410	1.3224	-179.0
116.86	2.3090E+5	4.5467	1.3217	+178.7
117.05	2.3100E+5	4.5439	1.3220	-178.6
117.23	2.3110E+5	4.5425	1.3237	-179.4
117.41	2.3120E+5	4.5453	1.3251	+180.1
117.59	2.3130E+5	4.5425	1.3244	+179.1
117.78	2.3140E+5	4.5425	1.3254	+180.0
117.96	2.3150E+5	4.5396	1.3251	+176.6
118.17	2.3160E+5	4.5410	1.3257	+179.1
118.37	2.3170E+5	4.5425	1.3267	+179.2
118.56	2.3180E+5	4.5425	1.3287	+179.4
118.74	2.3190E+5	4.5425	1.3296	-178.7
118.92	2.3200E+5	4.5425	1.3289	-179.0
119.10	2.3210E+5	4.5396	1.3301	+179.9
119.29	2.3220E+5	4.5396	1.3305	-178.3
119.47	2.3230E+5	4.5410	1.3305	+179.5
119.66	2.3240E+5	4.5425	1.3329	+178.3
119.85	2.3250E+5	4.5453	1.3320	+179.4
120.02	2.3260E+5	4.5396	1.3335	+177.8
120.22	2.3270E+5	4.5425	1.3342	+179.2
120.42	2.3280E+5	4.5453	1.3349	+177.1
120.60	2.3290E+5	4.5382	1.3340	+180.4
120.79	2.3300E+5	4.5453	1.3349	-178.7
120.99	2.3310E+5	4.5425	1.3369	+178.2
121.19	2.3320E+5	4.5439	1.3350	-178.4
121.37	2.3330E+5	4.5439	1.3390	-179.3
121.57	2.3340E+5	4.5439	1.3391	-179.6
121.73	2.3350E+5	4.5467	1.3400	+179.2
121.93	2.3360E+5	4.5425	1.3398	+178.7
122.10	2.3370E+5	4.5410	1.3403	+179.1
122.28	2.3380E+5	4.5410	1.3405	-179.7
122.45	2.3390E+5	4.5396	1.3398	-179.6
122.65	2.3400E+5	4.5439	1.3401	-178.8
122.83	2.3410E+5	4.5382	1.3418	+179.7
123.03	2.3420E+5	4.5354	1.3404	-179.6
123.21	2.3430E+5	4.5340	1.3422	-179.2
123.40	2.3440E+5	4.5425	1.3428	+178.2
123.60	2.3450E+5	4.5425	1.3451	+180.6
123.78	2.3460E+5	4.5382	1.3445	-179.1
124.01	2.3470E+5	4.5425	1.3469	+178.7
124.21	2.3480E+5	4.5396	1.3465	+179.0
124.41	2.3490E+5	4.5453	1.3500	+180.6
124.61	2.3500E+5	4.5410	1.3466	+179.3
124.81	2.3510E+5	4.5495	1.3511	-179.4
125.00	2.3520E+5	4.5410	1.3501	+179.3
125.19	2.3530E+5	4.5453	1.3507	+178.7
125.39	2.3540E+5	4.5410	1.3506	+178.3
125.58	2.3550E+5	4.5439	1.3509	+179.9
125.76	2.3560E+5	4.5382	1.3489	+179.2
125.94	2.3570E+5	4.5439	1.3548	-178.9
126.16	2.3580E+5	4.5425	1.3547	+179.7
126.33	2.3590E+5	4.5410	1.3530	+178.5
126.53	2.3600E+5	4.5425	1.3559	+179.0
126.71	2.3610E+5	4.5425	1.3547	-178.6
126.89	2.3620E+5	4.5439	1.3557	-178.9
127.06	2.3630E+5	4.5368	1.3575	+179.1
127.29	2.3640E+5	4.5439	1.3582	-178.4
127.49	2.3650E+5	4.5410	1.3585	-179.1
127.66	2.3660E+5	4.5396	1.3608	-180.4
127.87	2.3670E+5	4.5354	1.3606	-178.9
128.04	2.3680E+5	4.5410	1.3608	-179.3
128.24	2.3690E+5	4.5425	1.3620	+179.8
128.42	2.3700E+5	4.5439	1.3636	+177.8
128.60	2.3710E+5	4.5410	1.3636	+178.5
128.77	2.3720E+5	4.5439	1.3651	+180.3
128.97	2.3730E+5	4.5481	1.3647	+179.6
129.15	2.3740E+5	4.5410	1.3666	+178.6
129.35	2.3750E+5	4.5439	1.3660	+180.3
129.52	2.3760E+5	4.5396	1.3673	-177.7
129.72	2.3770E+5	4.5467	1.3681	+180.1
129.92	2.3780E+5	4.5425	1.3675	+178.3
130.12	2.3790E+5	4.5439	1.3675	-178.2
130.28	2.3800E+5	4.5410	1.3692	-179.6
130.48	2.3810E+5	4.5425	1.3724	+180.8
130.68	2.3820E+5	4.5467	1.3735	+178.4
130.87	2.3830E+5	4.5425	1.3735	+180.6
131.05	2.3840E+5	4.5439	1.3736	-178.5
131.22	2.3850E+5	4.5410	1.3748	+178.2
131.40	2.3860E+5	4.5410	1.3756	-177.5
131.56	2.3870E+5	4.5368	1.3780	-180.1
131.78	2.3880E+5	4.5396	1.3773	+180.4
131.95	2.3890E+5	4.5425	1.3790	+179.2
132.16	2.3900E+5	4.5410	1.3770	+179.2
132.34	2.3910E+5	4.5453	1.3794	+179.9
132.54	2.3920E+5	4.5467	1.3818	-178.7
132.73	2.3930E+5	4.5453	1.3817	+178.5
132.93	2.3940E+5	4.5425	1.3823	+179.7
133.11	2.3950E+5	4.5396	1.3841	+180.1
133.31	2.3960E+5	4.5453	1.3837	+178.9
133.49	2.3970E+5	4.5439	1.3851	-178.7
133.69	2.3980E+5	4.5467	1.3848	-178.2
133.86	2.3990E+5	4.5425	1.3848	+179.7
134.04	2.4000E+5	4.5396	1.3895	-179.3
134.26	2.4010E+5	4.5425	1.3885	-179.2
134.44	2.4020E+5	4.5396	1.3895	-178.4
134.64	2.4030E+5	4.5368	1.3881	-178.6
134.81	2.4040E+5	4.5410	1.3893	-180.4
135.01	2.4050E+5	4.5396	1.3913	-178.9
135.21	2.4060E+5	4.5382	1.3910	+179.7
135.39	2.4070E+5	4.5425	1.3940	-179.2
135.59	2.4080E+5	4.5481	1.3954	+180.9
135.77	2.4090E+5	4.5425	1.3946	+179.5
135.94	2.4100E+5	4.5410	1.3977	-178.3
136.14	2.4110E+5	4.5410	1.3974	+180.3
136.30	2.4120E+5	4.5439	1.3981	-179.2
136.49	2.4130E+5	4.5410	1.3971	+179.7
136.65	2.4140E+5	4.5439	1.4006	-179.2
136.85	2.4150E+5	4.5410	1.4006	+179.0
137.02	2.4160E+5	4.5425	1.4018	+180.6
137.22	2.4170E+5	4.5439	1.4025	+180.2
137.38	2.4180E+5	4.5410	1.4043	+180.4
137.57	2.4190E+5	4.5396	1.4033	+177.2
137.75	2.4200E+5	4.5425	1.4047	+180.1
137.97	2.4210E+5	4.5453	1.4056	+180.1
138.13	2.4220E+5	4.5439	1.4045	+179.5
138.32	2.4230E+5	4.5439	1.4060	-179.2
138.48	2.4240E+5	4.5481	1.4091	+180.4
138.68	2.4250E+5	4.5410	1.4100	-179.1
138.85	2.4260E+5	4.5439	1.4090	-178.2
139.03	2.4270E+5	4.5425	1.4091	-178.0
139.20	2.4280E+5	4.5453	1.4101	+179.1
139.40	2.4290E+5	4.5425	1.4134	-178.8
139.58	2.4300E+5	4.5453	1.4156	-178.6
139.76	2.4310E+5	4.5425	1.4122	-179.0
139.95	2.4320E+5	4.5368	1.4142	+179.7
140.18	2.4330E+5	4.5425	1.4165	-179.2
140.38	2.4340E+5	4.5439	1.4169	+180.2
140.56	2.4350E+5	4.5410	1.4162	-177.8
140.73	2.4360E+5	4.5481	1.4192	-178.7
140.93	2.4370E+5	4.5439	1.4190	+181.1
141.09	2.4380E+5	4.5410	1.4199	+180.8
141.28	2.4390E+5	4.5425	1.4217	-179.1
141.46	2.4400E+5	4.5396	1.4228	+178.5
141.66	2.4410E+5	4.5453	1.4213	+177.7
141.86	2.4420E+5	4.5453	1.4228	+179.4
142.06	2.4430E+5	4.5453	1.4251	+180.3
142.26	2.4440E+5	4.5453	1.4288	-178.3
142.44	2.4450E+5	4.5439	1.4278	-179.5
142.62	2.4460E+5	4.5368	1.4288	+178.7
142.81	2.4470E+5	4.5453	1.4268	-178.5
143.04	2.4480E+5	4.5425	1.4295	+180.6
143.22	2.4490E+5	4.5453	1.4317	-177.9
143.42	2.4500E+5	4.5410	1.4339	-177.3
143.60	2.4510E+5	4.5410	1.4322	+179.4
143.80	2.4520E+5	4.5453	1.4343	-178.2
143.99	2.4530E+5	4.5410	1.4330	-179.5
144.17	2.4540E+5	4.5495	1.4354	-179.2
144.34	2.4550E+5	4.5410	1.4349	-178.7
144.52	2.4560E+5	4.5410	1.4353	-179.8
144.69	2.4570E+5	4.5425	1.4378	-179.6
144.87	2.4580E+5	4.5453	1.4400	+179.8
145.07	2.4590E+5	4.5467	1.4412	-179.5
145.25	2.4600E+5	4.5410	1.4419	+179.2
145.43	2.4610E+5	4.5410	1.4421	-178.5
145.60	2.4620E+5	4.5439	1.4431	-179.2
145.78	2.4630E+5	4.5467	1.4448	+180.6
145.97	2.4640E+5	4.5453	1.4435	+180.5
146.17	2.4650E+5	4.5453	1.4463	+181.4
146.35	2.4660E+5	4.5410	1.4470	-178.9
146.55	2.4670E+5	4.5453	1.4494	+179.1
146.71	2.4680E+5	4.5495	1.4473	+179.6
146.90	2.4690E+5	4.5439	1.4504	-178.7
147.08	2.4700E+5	4.5453	1.4484	+179.6
147.28	2.4710E+5	4.5453	1.4513	-178.0
147.46	2.4720E+5	4.5439	1.4514	-178.5
147.65	2.4730E+5	4.5410	1.4518	+180.4
147.81	2.4740E+5	4.5425	1.4527	+178.9
148.01	2.4750E+5	4.5467	1.4544	-178.5
148.18	2.4760E+5	4.5410	1.4530	+181.1
148.36	2.4770E+5	4.5467	1.4558	-179.0
148.54	2.4780E+5	4.5425	1.4583	-178.2
148.74	2.4790E+5	4.5439	1.4603	-179.0
148.91	2.4800E+5	4.5453	1.4573	+178.5
149.11	2.4810E+5	4.5439	1.4596	-178.5
149.29	2.4820E+5	4.5425	1.4600	+178.7
149.48	2.4830E+5	4.5396	1.4617	+178.5
149.68	2.4840E+5	4.5354	1.4617	-178.4
149.86	2.4850E+5	4.5467	1.4623	-179.8
150.04	2.4860E+5	4.5453	1.4620	-176.7
150.22	2.4870E+5	4.5396	1.4636	-180.0
150.41	2.4880E+5	4.5481	1.4657	-178.0
150.64	2.4890E+5	4.5467	1.4675	+180.4
150.82	2.4900E+5	4.5410	1.4677	-177.7
151.01	2.4910E+5	4.5439	1.4688	+180.3
151.17	2.4920E+5	4.5439	1.4692	-179.1
151.36	2.4930E+5	4.5382	1.4695	+180.8
151.56	2.4940E+5	4.5439	1.4699	+178.9
151.75	2.4950E+5	4.5439	1.4713	+180.1
151.92	2.4960E+5	4.5467	1.4719	+179.6
152.10	2.4970E+5	4.5382	1.4730	+180.4
152.30	2.4980E+5	4.5425	1.4728	+181.0
152.52	2.4990E+5	4.5439	1.4740	+179.2
152.69	2.5000E+5	4.5453	1.4753	+180.1
152.87	2.5010E+5	4.5439	1.4750	+178.7
153.07	2.5020E+5	4.5410	1.4757	-178.5
153.25	2.5030E+5	4.5439	1.4738	-179.2
153.45	2.5040E+5	4.5439	1.4779	+180.8
153.63	2.5050E+5	4.5410	1.4794	+180.0
153.83	2.5060E+5	4.5453	1.4804	-178.7
154.00	2.5070E+5	4.5368	1.4801	-179.6
154.20	2.5080E+5	4.5410	1.4831	-178.3
154.40	2.5090E+5	4.5410	1.4835	-178.2
154.58	2.5100E+5	4.5453	1.4838	+179.9
154.76	2.5110E+5	4.5467	1.4828	+180.0
154.96	2.5120E+5	4.5453	1.4866	-179.2
155.15	2.5130E+5	4.5439	1.4853	+180.0
155.35	2.5140E+5	4.5410	1.4870	-176.9
155.53	2.5150E+5	4.5453	1.4859	+177.6
155.73	2.5160E+5	4.5425	1.4889	-179.6
155.91	2.5170E+5	4.5453	1.4886	-179.4
156.10	2.5180E+5	4.5368	1.4897	-178.0
156.29	2.5190E+5	4.5425	1.4920	-179.5
156.49	2.5200E+5	4.5439	1.4896	+181.3
156.66	2.5210E+5	4.5439	1.4931	-177.9
156.84	2.5220E+5	4.5410	1.4951	-178.3
157.04	2.5230E+5	4.5425	1.4930	-177.9
157.23	2.5240E+5	4.5467	1.4937	+179.9
157.41	2.5250E+5	4.5439	1.4955	-178.0
157.59	2.5260E+5	4.5396	1.4968	-178.2
157.79	2.5270E+5	4.5439	1.4993	-178.9
157.99	2.5280E+5	4.5439	1.4969	+180.8
158.19	2.5290E+5	4.5453	1.5018	-179.4
158.37	2.5300E+5	4.5453	1.4996	+180.0
158.57	2.5310E+5	4.5481	1.5003	+180.1
158.74	2.5320E+5	4.5495	1.5015	-177.0
158.94	2.5330E+5	4.5495	1.5036	+180.2
159.12	2.5340E+5	4.5382	1.5051	+180.1
159.32	2.5350E+5	4.5382	1.5020	+179.4
159.50	2.5360E+5	4.5453	1.5030	+179.2
159.70	2.5370E+5	4.5467	1.5066	-180.1
159.89	2.5380E+5	4.5453	1.5064	+180.6
160.05	2.5390E+5	4.5439	1.5076	+181.1
160.24	2.5400E+5	4.5453	1.5098	-179.7
160.42	2.5410E+5	4.5453	1.5118	-178.1
160.60	2.5420E+5	4.5410	1.5121	+180.7
160.78	2.5430E+5	4.5410	1.5107	-179.5
160.98	2.5440E+5	4.5439	1.5097	+180.3
161.15	2.5450E+5	4.5439	1.5119	-178.5
161.35	2.5460E+5	4.5439	1.5136	+180.4
161.52	2.5470E+5	4.5425	1.5135	+180.1
161.70	2.5480E+5	4.5453	1.5159	+179.9
161.88	2.5490E+5	4.5481	1.5175	+179.2
162.07	2.5500E+5	4.5467	1.5160	-179.6
162.23	2.5510E+5	4.5453	1.5159	+180.6
162.40	2.5520E+5	4.5467	1.5166	-178.1
162.58	2.5530E+5	4.5396	1.5193	+180.0
162.78	2.5540E+5	4.5410	1.5201	+180.3
162.98	2.5550E+5	4.5425	1.5191	-179.8
163.15	2.5560E+5	4.5382	1.5211	-177.1
163.36	2.5570E+5	4.5425	1.5237	+180.6
163.56	2.5580E+5	4.5481	1.5218	-179.4
163.76	2.5590E+5	4.5425	1.5244	-179.5
163.94	2.5600E+5	4.5326	1.5225	-180.4
164.18	2.5610E+5	4.5481	1.5268	-179.6
164.38	2.5620E+5	4.5495	1.5266	+179.8
164.54	2.5630E+5	4.5439	1.5268	-179.4
164.73	2.5640E+5	4.5425	1.5266	-177.7
164.89	2.5650E+5	4.5495	1.5289	-178.8
165.09	2.5660E+5	4.5467	1.5302	+179.6
165.26	2.5670E+5	4.5396	1.5279	+180.6
165.49	2.5680E+5	4.5425	1.5307	-178.5
165.69	2.5690E+5	4.5410	1.5310	-180.0
165.87	2.5700E+5	4.5453	1.5324	+180.1
166.06	2.5710E+5	4.5439	1.5347	+179.4
166.26	2.5720E+5	4.5467	1.5343	+180.6
166.44	2.5730E+5	4.5467	1.5344	-178.9
166.61	2.5740E+5	4.5481	1.5371	-177.1
166.81	2.5750E+5	4.5453	1.5377	+180.0
166.99	2.5760E+5	4.5481	1.5384	+181.1
167.17	2.5770E+5	4.5453	1.5384	+178.8
167.34	2.5780E+5	4.5439	1.5367	+179.3
167.54	2.5790E+5	4.5453	1.5397	-177.5
167.72	2.5800E+5	4.5481	1.5419	+180.4
167.92	2.5810E+5	4.5453	1.5401	+179.5
168.10	2.5820E+5	4.5495	1.5436	-179.6
168.30	2.5830E+5	4.5453	1.5426	+179.4
168.49	2.5840E+5	4.5453	1.5422	+180.4
168.65	2.5850E+5	4.5425	1.5455	+178.9
168.85	2.5860E+5	4.5410	1.5452	-177.9
169.02	2.5870E+5	4.5396	1.5453	+179.4
169.22	2.5880E+5	4.5467	1.5471	-178.8
169.42	2.5890E+5	4.5425	1.5477	+178.8
169.60	2.5900E+5	4.5410	1.5486	-179.2
169.76	2.5910E+5	4.5481	1.5503	+179.4
169.97	2.5920E+5	4.5453	1.5517	-179.6
170.15	2.5930E+5	4.5467	1.5541	+179.7
170.31	2.5940E+5	4.5439	1.5542	+178.8
170.50	2.5950E+5	4.5439	1.5531	-178.9
170.66	2.5960E+5	4.5524	1.5522	+179.2
170.85	2.5970E+5	4.5425	1.5561	-179.7
171.03	2.5980E+5	4.5453	1.5559	-178.2
171.21	2.5990E+5	4.5467	1.5578	-178.4
171.40	2.6000E+5	4.5439	1.5565	+180.7
171.60	2.6010E+5	4.5439	1.5587	+180.5
171.78	2.6020E+5	4.5410	1.5592	+180.4
171.94	2.6030E+5	4.5410	1.5604	-177.6
172.14	2.6040E+5	4.5453	1.5590	+180.5
172.33	2.6050E+5	4.5453	1.5641	-178.5
172.53	2.6060E+5	4.5467	1.5597	-179.6
172.71	2.6070E+5	4.5439	1.5617	-178.0
172.91	2.6080E+5	4.5453	1.5641	-178.7
173.09	2.6090E+5	4.5425	1.5631	-179.2
173.28	2.6100E+5	4.5467	1.5667	-177.6
173.46	2.6110E+5	4.5439	1.5654	-179.8
173.64	2.6120E+5	4.5453	1.5668	+180.1
173.84	2.6130E+5	4.5396	1.5671	+179.4
174.02	2.6140E+5	4.5425	1.5681	-177.0
174.22	2.6150E+5	4.5439	1.5692	-180.1
174.41	2.6160E+5	4.5481	1.5689	-179.5
174.59	2.6170E+5	4.5538	1.5703	+179.2
174.76	2.6180E+5	4.5481	1.5718	-177.8
174.96	2.6190E+5	4.5439	1.5715	+179.9
175.12	2.6200E+5	4.5382	1.5736	+179.6
175.30	2.6210E+5	4.5410	1.5747	+179.7
175.54	2.6220E+5	4.5453	1.5739	+178.7
175.72	2.6230E+5	4.5495	1.5773	-178.5
175.92	2.6240E+5	4.5467	1.5767	+179.9
176.10	2.6250E+5	4.5453	1.5770	-178.6
176.30	2.6260E+5	4.5410	1.5791	+179.9
176.47	2.6270E+5	4.5425	1.5791	-176.2
176.63	2.6280E+5	4.5439	1.5817	+181.4
176.83	2.6290E+5	4.5439	1.5822	-178.1
177.00	2.6300E+5	4.5467	1.5838	-176.7
177.20	2.6310E+5	4.5453	1.5845	+178.7
177.37	2.6320E+5	4.5439	1.5849	+179.6
177.55	2.6330E+5	4.5481	1.5884	-177.3
177.73	2.6340E+5	4.5396	1.5865	-178.7
177.93	2.6350E+5	4.5467	1.5901	-179.6
178.15	2.6360E+5	4.5425	1.5920	-179.1
178.33	2.6370E+5	4.5410	1.5911	+180.0
178.51	2.6380E+5	4.5439	1.5918	-177.0
178.68	2.6390E+5	4.5481	1.5931	+179.2
178.86	2.6400E+5	4.5453	1.5961	+179.9
179.05	2.6410E+5	4.5453	1.5958	+179.3
179.21	2.6420E+5	4.5439	1.5955	+179.4
179.40	2.6430E+5	4.5481	1.5975	-178.2
179.58	2.6440E+5	4.5453	1.6000	-178.5
179.78	2.6450E+5	4.5439	1.5981	-179.5
179.96	2.6460E+5	4.5410	1.6016	-178.2
180.16	2.6470E+5	4.5453	1.6036	-179.2
180.34	2.6480E+5	4.5467	1.6013	-179.5
180.53	2.6490E+5	4.5410	1.6020	-179.7
180.71	2.6500E+5	4.5453	1.6048	-178.7
180.89	2.6510E+5	4.5481	1.6050	-178.9
181.07	2.6520E+5	4.5439	1.6067	-177.8
181.26	2.6530E+5	4.5439	1.6081	-179.0
181.46	2.6540E+5	4.5439	1.6095	+181.1
181.62	2.6550E+5	4.5495	1.6108	-179.3
181.79	2.6560E+5	4.5538	1.6122	-177.2
181.99	2.6570E+5	4.5453	1.6136	-179.7
182.16	2.6580E+5	4.5425	1.6115	+179.7
182.34	2.6590E+5	4.5425	1.6135	-177.5
182.50	2.6600E+5	4.5425	1.6164	-177.3
182.71	2.6610E+5	4.5439	1.6159	-178.9
182.87	2.6620E+5	4.5439	1.6167	-179.2
183.05	2.6630E+5	4.5410	1.6177	-176.8
183.24	2.6640E+5	4.5410	1.6184	+179.8
183.40	2.6650E+5	4.5425	1.6190	+180.5
183.59	2.6660E+5	4.5425	1.6222	-178.8
183.77	2.6670E+5	4.5439	1.6222	-179.1
183.95	2.6680E+5	4.5453	1.6244	-179.0
184.12	2.6690E+5	4.5425	1.6235	-176.8
184.28	2.6700E+5	4.5425	1.6263	-178.2
184.49	2.6710E+5	4.5453	1.6296	-179.4
184.67	2.6720E+5	4.5425	1.6261	-178.9
184.87	2.6730E+5	4.5495	1.6279	-177.1
185.05	2.6740E+5	4.5495	1.6307	-176.9
185.25	2.6750E+5	4.5453	1.6304	-178.9
185.43	2.6760E+5	4.5467	1.6330	-178.9
185.62	2.6770E+5	4.5495	1.6354	-179.2
185.81	2.6780E+5	4.5453	1.6354	-177.0
185.98	2.6790E+5	4.5467	1.6343	-178.5
186.16	2.6800E+5	4.5439	1.6372	-178.5
186.35	2.6810E+5	4.5425	1.6392	+179.4
186.53	2.6820E+5	4.5410	1.6379	-178.9
186.73	2.6830E+5	4.5410	1.6402	-178.2
186.91	2.6840E+5	4.5425	1.6412	-178.3
187.10	2.6850E+5	4.5410	1.6413	-177.6
187.26	2.6860E+5	4.5425	1.6433	-178.2
187.46	2.6870E+5	4.5467	1.6452	-178.2
187.64	2.6880E+5	4.5467	1.6469	-176.6
187.81	2.6890E+5	4.5410	1.6490	-177.2
188.01	2.6900E+5	4.5439	1.6481	-177.2
188.18	2.6910E+5	4.5410	1.6494	-179.3
188.36	2.6920E+5	4.5453	1.6494	-178.4
188.53	2.6930E+5	4.5481	1.6518	-177.1
188.71	2.6940E+5	4.5481	1.6532	-177.8
188.89	2.6950E+5	4.5481	1.6531	-176.7
189.06	2.6960E+5	4.5425	1.6545	-177.5
189.26	2.6970E+5	4.5481	1.6568	-176.2
189.44	2.6980E+5	4.5439	1.6575	-179.5
189.61	2.6990E+5	4.5481	1.6593	-178.4
189.81	2.7000E+5	4.5453	1.6580	-178.0
189.99	2.7010E+5	4.5481	1.6587	-176.3
190.17	2.7020E+5	4.5453	1.6614	-178.8
190.34	2.7030E+5	4.5453	1.6609	-176.9
190.52	2.7040E+5	4.5368	1.6637	-177.9
190.72	2.7050E+5	4.5453	1.6620	-177.1
190.90	2.7060E+5	4.5382	1.6668	-179.6
191.12	2.7070E+5	4.5439	1.6671	+180.6
191.32	2.7080E+5	4.5439	1.6693	-178.5
191.52	2.7090E+5	4.5439	1.6700	-178.7
191.69	2.7100E+5	4.5467	1.6716	-177.7
191.87	2.7110E+5	4.5453	1.6756	-178.2
192.07	2.7120E+5	4.5495	1.6724	-176.5
192.25	2.7130E+5	4.5453	1.6734	-178.2
192.45	2.7140E+5	4.5453	1.6713	-178.8
192.63	2.7150E+5	4.5453	1.6775	-178.0
192.82	2.7160E+5	4.5453	1.6781	-177.8
193.00	2.7170E+5	4.5439	1.6773	-178.9
193.17	2.7180E+5	4.5425	1.6773	-178.0
193.35	2.7190E+5	4.5524	1.6807	-178.3
193.53	2.7200E+5	4.5410	1.6801	-178.7
193.70	2.7210E+5	4.5396	1.6835	-178.6
193.91	2.7220E+5	4.5425	1.6811	-178.0
194.11	2.7230E+5	4.5495	1.6850	-177.5
194.31	2.7240E+5	4.5410	1.6848	-178.4
194.48	2.7250E+5	4.5425	1.6869	-178.0
194.65	2.7260E+5	4.5467	1.6870	-178.9
194.83	2.7270E+5	4.5453	1.6898	+179.7
195.01	2.7280E+5	4.5410	1.6924	-178.4
195.21	2.7290E+5	4.5453	1.6910	-179.4
195.38	2.7300E+5	4.5439	1.6922	-177.5
195.56	2.7310E+5	4.5453	1.6955	-178.8
195.74	2.7320E+5	4.5439	1.6965	-177.7
195.93	2.7330E+5	4.5509	1.6983	-179.4
196.11	2.7340E+5	4.5453	1.6976	+180.1
196.28	2.7350E+5	4.5439	1.6992	-178.0
196.47	2.7360E+5	4.5481	1.7009	-178.2
196.64	2.7370E+5	4.5396	1.7007	-178.7
196.82	2.7380E+5	4.5481	1.7026	-177.7
197.04	2.7390E+5	4.5439	1.7036	-178.7
197.21	2.7400E+5	4.5439	1.7029	-178.6
197.39	2.7410E+5	4.5467	1.7064	-178.2
197.57	2.7420E+5	4.5425	1.7027	+179.5
197.76	2.7430E+5	4.5439	1.7065	-178.0
197.96	2.7440E+5	4.5439	1.7084	-178.2
198.14	2.7450E+5	4.5453	1.7096	-179.8
198.32	2.7460E+5	4.5467	1.7106	+179.4
198.50	2.7470E+5	4.5425	1.7111	+180.4
198.67	2.7480E+5	4.5495	1.7142	-177.8
198.87	2.7490E+5	4.5439	1.7145	-178.9
199.04	2.7500E+5	4.5425	1.7154	-180.1
199.20	2.7510E+5	4.5495	1.7204	-178.4
199.40	2.7520E+5	4.5425	1.7204	-177.2
199.57	2.7530E+5	4.5467	1.7195	-178.0
199.75	2.7540E+5	4.5396	1.7190	-178.9
199.94	2.7550E+5	4.5439	1.7256	-179.9
200.13	2.7560E+5	4.5425	1.7214	+181.1
200.33	2.7570E+5	4.5481	1.7276	-177.4
200.52	2.7580E+5	4.5495	1.7268	-177.7
200.72	2.7590E+5	4.5481	1.7272	-180.4
200.90	2.7600E+5	4.5495	1.7259	-179.6
201.08	2.7610E+5	4.5453	1.7265	+180.2
201.26	2.7620E+5	4.5467	1.7321	-179.6
201.45	2.7630E+5	4.5439	1.7338	+180.2
201.65	2.7640E+5	4.5467	1.7338	-179.2
201.82	2.7650E+5	4.5481	1.7320	-177.8
202.00	2.7660E+5	4.5410	1.7316	-179.7
202.18	2.7670E+5	4.5425	1.7340	-178.9
202.36	2.7680E+5	4.5509	1.7368	-178.4
202.56	2.7690E+5	4.5453	1.7415	+179.7
202.75	2.7700E+5	4.5425	1.7384	-178.5
202.93	2.7710E+5	4.5425	1.7409	-177.8
203.11	2.7720E+5	4.5524	1.7410	-177.0
203.29	2.7730E+5	4.5495	1.7427	-179.1
203.48	2.7740E+5	4.5410	1.7434	+179.9
203.64	2.7750E+5	4.5382	1.7432	+179.6
203.83	2.7760E+5	4.5453	1.7456	-179.4
204.04	2.7770E+5	4.5453	1.7470	-177.6
204.23	2.7780E+5	4.5509	1.7519	+182.2
204.41	2.7790E+5	4.5467	1.7528	-176.3
204.61	2.7800E+5	4.5439	1.7515	-179.2
204.79	2.7810E+5	4.5410	1.7524	-178.8
204.99	2.7820E+5	4.5425	1.7546	+182.4
205.16	2.7830E+5	4.5425	1.7533	-177.8
205.32	2.7840E+5	4.5425	1.7548	+180.4
205.51	2.7850E+5	4.5495	1.7604	-178.5
205.69	2.7860E+5	4.5495	1.7589	-176.4
205.87	2.7870E+5	4.5467	1.7584	-178.6
206.04	2.7880E+5	4.5509	1.7625	-177.7
206.22	2.7890E+5	4.5453	1.7601	-178.7
206.42	2.7900E+5	4.5425	1.7644	-179.1
206.60	2.7910E+5	4.5481	1.7669	-177.4
206.80	2.7920E+5	4.5439	1.7661	-178.4
206.99	2.7930E+5	4.5524	1.7716	-176.1
207.17	2.7940E+5	4.5439	1.7652	-179.9
207.37	2.7950E+5	4.5425	1.7675	-176.4
207.55	2.7960E+5	4.5368	1.7695	-178.7
207.75	2.7970E+5	4.5425	1.7703	-178.7
207.95	2.7980E+5	4.5396	1.7750	-177.3
208.15	2.7990E+5	4.5425	1.7743	+180.1
208.37	2.8000E+5	4.5453	1.7784	-177.0
208.55	2.8010E+5	4.5425	1.7781	-177.8
208.72	2.8020E+5	4.5439	1.7775	-178.1
208.92	2.8030E+5	4.5467	1.7840	-176.3
209.10	2.8040E+5	4.5481	1.7804	-178.5
209.28	2.8050E+5	4.5396	1.7802	-177.2
209.48	2.8060E+5	4.5467	1.7821	-178.2
209.68	2.8070E+5	4.5453	1.7866	-177.5
209.88	2.8080E+5	4.5453	1.7846	-177.6
210.06	2.8090E+5	4.5425	1.7864	-178.6
210.25	2.8100E+5	4.5410	1.7884	-176.3
210.43	2.8110E+5	4.5467	1.7888	-177.4
210.60	2.8120E+5	4.5382	1.7891	-175.7
210.81	2.8130E+5	4.5467	1.7921	-177.2
211.01	2.8140E+5	4.5425	1.7942	-177.8
211.18	2.8150E+5	4.5439	1.7948	-176.8
211.38	2.8160E+5	4.5425	1.7970	-178.1
211.54	2.8170E+5	4.5467	1.7977	-175.9
211.73	2.8180E+5	4.5410	1.7976	-175.9
211.91	2.8190E+5	4.5524	1.8030	-176.7
212.09	2.8200E+5	4.5481	1.8026	-177.1
212.28	2.8210E+5	4.5453	1.8052	-176.5
212.46	2.8220E+5	4.5439	1.8065	-175.7
212.64	2.8230E+5	4.5453	1.8062	-177.7
212.82	2.8240E+5	4.5495	1.8099	-177.3
213.01	2.8250E+5	4.5481	1.8088	-178.6
213.19	2.8260E+5	4.5453	1.8115	-178.0
213.39	2.8270E+5	4.5467	1.8117	-178.7
213.57	2.8280E+5	4.5467	1.8116	-176.8
213.77	2.8290E+5	4.5509	1.8185	-177.0
213.96	2.8300E+5	4.5439	1.8139	-177.1
214.14	2.8310E+5	4.5439	1.8149	-177.0
214.34	2.8320E+5	4.5410	1.8149	-176.8
214.50	2.8330E+5	4.5495	1.8204	-176.5
214.69	2.8340E+5	4.5453	1.8250	-179.1
214.89	2.8350E+5	4.5453	1.8207	-179.0
215.07	2.8360E+5	4.5425	1.8241	-177.8
215.27	2.8370E+5	4.5453	1.8208	-177.5
215.45	2.8380E+5	4.5481	1.8265	-177.9
215.63	2.8390E+5	4.5467	1.8257	-178.0
215.84	2.8400E+5	4.5425	1.8267	+180.0
216.02	2.8410E+5	4.5495	1.8287	-176.6
216.20	2.8420E+5	4.5453	1.8282	-178.1
216.40	2.8430E+5	4.5439	1.8304	-177.3
216.58	2.8440E+5	4.5410	1.8321	-176.4
216.78	2.8450E+5	4.5368	1.8306	-178.5
216.98	2.8460E+5	4.5439	1.8359	-178.6
217.18	2.8470E+5	4.5467	1.8399	-176.3
217.38	2.8480E+5	4.5495	1.8392	-177.1
217.55	2.8490E+5	4.5439	1.8383	-178.7
217.71	2.8500E+5	4.5368	1.8410	-175.3
217.93	2.8510E+5	4.5410	1.8402	-178.0
218.11	2.8520E+5	4.5382	1.8446	-176.8
218.31	2.8530E+5	4.5566	1.8468	-179.1
218.53	2.8540E+5	4.5425	1.8426	-178.7
218.71	2.8550E+5	4.5439	1.8461	-177.7
218.91	2.8560E+5	4.5396	1.8453	-177.5
219.11	2.8570E+5	4.5439	1.8509	-176.8
219.31	2.8580E+5	4.5467	1.8532	-177.1
219.51	2.8590E+5	4.5467	1.8525	-178.1
219.68	2.8600E+5	4.5481	1.8553	-175.6
219.86	2.8610E+5	4.5410	1.8564	-179.0
220.04	2.8620E+5	4.5425	1.8566	-177.6
220.21	2.8630E+5	4.5495	1.8577	-176.7
220.41	2.8640E+5	4.5396	1.8580	-179.7
220.57	2.8650E+5	4.5410	1.8605	-178.0
220.78	2.8660E+5	4.5425	1.8627	-176.3
220.97	2.8670E+5	4.5425	1.8639	-177.3
221.14	2.8680E+5	4.5410	1.8661	-176.8
221.32	2.8690E+5	4.5495	1.8692	-177.3
221.52	2.8700E+5	4.5453	1.8703	-178.5
221.69	2.8710E+5	4.5439	1.8711	-177.5
221.87	2.8720E+5	4.5439	1.8694	-178.5
222.07	2.8730E+5	4.5382	1.8717	-177.1
222.27	2.8740E+5	4.5552	1.8809	-175.9
222.49	2.8750E+5	4.5495	1.8786	-178.6
222.67	2.8760E+5	4.5410	1.8757	-177.8
222.85	2.8770E+5	4.5453	1.8792	-177.7
223.05	2.8780E+5	4.5495	1.8851	-176.5
223.24	2.8790E+5	4.5453	1.8819	-177.1
223.42	2.8800E+5	4.5410	1.8827	-178.1
223.62	2.8810E+5	4.5453	1.8864	-176.6
223.80	2.8820E+5	4.5481	1.8866	-175.5
223.97	2.8830E+5	4.5453	1.8885	-179.5
224.17	2.8840E+5	4.5396	1.8854	-179.3
224.37	2.8850E+5	4.5509	1.8929	-178.9
224.57	2.8860E+5	4.5453	1.8900	-175.8
224.76	2.8870E+5	4.5453	1.8932	-176.7
224.95	2.8880E+5	4.5410	1.8938	-176.8
225.15	2.8890E+5	4.5481	1.8970	-176.1
225.33	2.8900E+5	4.5538	1.9025	-177.0
225.51	2.8910E+5	4.5524	1.9010	-177.6
225.71	2.8920E+5	4.5425	1.9020	-176.6
225.88	2.8930E+5	4.5481	1.9034	-177.0
226.06	2.8940E+5	4.5467	1.9062	-177.7
226.26	2.8950E+5	4.5396	1.9051	-176.5
226.44	2.8960E+5	4.5453	1.9089	-178.5
226.63	2.8970E+5	4.5552	1.9102	-177.3
226.81	2.8980E+5	4.5453	1.9116	-177.6
227.00	2.8990E+5	4.5524	1.9122	-179.6
227.18	2.9000E+5	4.5453	1.9177	-177.6
227.36	2.9010E+5	4.5439	1.9140	-177.8
227.54	2.9020E+5	4.5425	1.9154	-177.8
227.73	2.9030E+5	4.5453	1.9191	-176.7
227.91	2.9040E+5	4.5410	1.9205	-178.7
228.09	2.9050E+5	4.5382	1.9181	-178.3
228.31	2.9060E+5	4.5467	1.9247	-176.7
228.51	2.9070E+5	4.5410	1.9280	-176.5
228.69	2.9080E+5	4.5439	1.9298	-179.6
228.87	2.9090E+5	4.5467	1.9328	-179.2
229.06	2.9100E+5	4.5410	1.9320	-178.8
229.22	2.9110E+5	4.5467	1.9370	-176.8
229.42	2.9120E+5	4.5439	1.9372	-176.3
229.59	2.9130E+5	4.5552	1.9393	-178.1
229.77	2.9140E+5	4.5425	1.9411	-176.8
229.95	2.9150E+5	4.5495	1.9434	-178.1
230.14	2.9160E+5	4.5410	1.9436	-177.4
230.32	2.9170E+5	4.5524	1.9450	-177.2
230.50	2.9180E+5	4.5524	1.9533	-176.4
230.69	2.9190E+5	4.5396	1.9485	-177.6
230.90	2.9200E+5	4.5580	1.9515	-177.2
231.10	2.9210E+5	4.5439	1.9502	-177.5
231.28	2.9220E+5	4.5410	1.9513	-178.8
231.49	2.9230E+5	4.5481	1.9563	-176.3
231.67	2.9240E+5	4.5396	1.9570	-176.9
231.85	2.9250E+5	4.5396	1.9566	-177.9
232.03	2.9260E+5	4.5425	1.9609	-179.4
232.23	2.9270E+5	4.5538	1.9653	-176.8
232.42	2.9280E+5	4.5382	1.9683	-177.2
232.63	2.9290E+5	4.5467	1.9677	-175.7
232.81	2.9300E+5	4.5453	1.9699	-177.2
232.98	2.9310E+5	4.5495	1.9704	-177.3
233.18	2.9320E+5	4.5481	1.9699	-177.0
233.36	2.9330E+5	4.5467	1.9725	-176.1
233.56	2.9340E+5	4.5509	1.9766	-175.2
233.75	2.9350E+5	4.5467	1.9788	-177.0
233.93	2.9360E+5	4.5425	1.9793	-179.2
234.11	2.9370E+5	4.5481	1.9836	-176.6
234.29	2.9380E+5	4.5453	1.9830	-176.8
234.46	2.9390E+5	4.5439	1.9834	-175.3
234.65	2.9400E+5	4.5481	1.9882	-176.8
234.83	2.9410E+5	4.5453	1.9878	-178.0
235.00	2.9420E+5	4.5453	1.9908	-176.9
235.19	2.9430E+5	4.5509	1.9925	-176.4
235.36	2.9440E+5	4.5481	1.9947	-176.3
235.54	2.9450E+5	4.5410	1.9947	-177.3
235.73	2.9460E+5	4.5439	1.9952	-177.4
235.89	2.9470E+5	4.5410	1.9962	-177.3
236.07	2.9480E+5	4.5368	1.9996	-176.2
236.29	2.9490E+5	4.5495	2.0051	-176.7
236.49	2.9500E+5	4.5396	2.0021	-179.4
236.69	2.9510E+5	4.5467	2.0066	-177.4
236.91	2.9520E+5	4.5425	2.0093	-179.4
237.09	2.9530E+5	4.5453	2.0107	-175.9
237.27	2.9540E+5	4.5453	2.0127	-177.3
237.47	2.9550E+5	4.5425	2.0134	-178.7
237.62	2.9560E+5	4.5481	2.0153	-175.9
237.79	2.9570E+5	4.5481	2.0205	-176.0
237.99	2.9580E+5	4.5425	2.0209	-176.4
238.15	2.9590E+5	4.5495	2.0215	-178.2
238.34	2.9600E+5	4.5467	2.0239	-176.1
238.54	2.9610E+5	4.5467	2.0266	-177.2
238.70	2.9620E+5	4.5368	2.0254	-175.1
238.90	2.9630E+5	4.5382	2.0285	-177.1
239.09	2.9640E+5	4.5439	2.0243	-177.4
239.28	2.9650E+5	4.5481	2.0295	-176.8
239.49	2.9660E+5	4.5566	2.0373	-176.3
239.67	2.9670E+5	4.5354	2.0302	-178.0
239.87	2.9680E+5	4.5453	2.0348	-176.3
240.08	2.9690E+5	4.5425	2.0368	-176.3
240.27	2.9700E+5	4.5425	2.0441	-176.3
240.45	2.9710E+5	4.5439	2.0435	-178.2
240.65	2.9720E+5	4.5439	2.0435	-179.6
240.81	2.9730E+5	4.5439	2.0502	-177.2
241.00	2.9740E+5	4.5425	2.0479	-179.0
241.20	2.9750E+5	4.5453	2.0486	-175.7
241.36	2.9760E+5	4.5509	2.0553	-176.0
241.55	2.9770E+5	4.5481	2.0556	-174.7
241.73	2.9780E+5	4.5566	2.0577	-175.2
241.90	2.9790E+5	4.5467	2.0574	-176.1
242.06	2.9800E+5	4.5538	2.0629	-178.5
242.26	2.9810E+5	4.5382	2.0584	-178.9
242.46	2.9820E+5	4.5481	2.0625	-177.9
242.66	2.9830E+5	4.5439	2.0625	-177.2
242.84	2.9840E+5	4.5382	2.0650	-175.1
243.04	2.9850E+5	4.5509	2.0718	-175.8
243.24	2.9860E+5	4.5495	2.0683	-175.8
243.44	2.9870E+5	4.5410	2.0686	-178.5
243.61	2.9880E+5	4.5481	2.0734	-175.8
243.79	2.9890E+5	4.5509	2.0821	-176.1
243.99	2.9900E+5	4.5467	2.0802	-174.8
244.18	2.9910E+5	4.5439	2.0833	-175.9
244.36	2.9920E+5	4.5396	2.0802	-178.4
244.57	2.9930E+5	4.5481	2.0913	-178.7
244.77	2.9940E+5	4.5453	2.0895	-175.4
244.94	2.9950E+5	4.5382	2.0867	-177.6
245.16	2.9960E+5	4.5538	2.0950	-176.6
245.36	2.9970E+5	4.5538	2.0983	-177.3
245.54	2.9980E+5	4.5425	2.0980	-175.8
245.72	2.9990E+5	4.5481	2.1029	-176.4
245.90	3.0000E+5	4.5439	2.0969	-176.8
246.10	3.0010E+5	4.5524	2.1015	-175.4
246.29	3.0020E+5	4.5481	2.1063	-175.8
246.49	3.0030E+5	4.5453	2.1100	-176.1
246.69	3.0040E+5	4.5439	2.1120	-176.6
246.87	3.0050E+5	4.5439	2.1133	-177.8
247.05	3.0060E+5	4.5509	2.1176	-176.1
247.25	3.0070E+5	4.5495	2.1222	-175.1
247.43	3.0080E+5	4.5439	2.1191	-176.9
247.63	3.0090E+5	4.5354	2.1176	-177.3
247.83	3.0100E+5	4.5538	2.1257	-177.3
248.03	3.0110E+5	4.5467	2.1249	-176.6
248.23	3.0120E+5	4.5425	2.1305	-178.2
248.43	3.0130E+5	4.5439	2.1250	-176.3
248.62	3.0140E+5	4.5467	2.1308	-176.3
248.81	3.0150E+5	4.5425	2.1343	-176.4
249.01	3.0160E+5	4.5524	2.1374	-174.9
249.20	3.0170E+5	4.5410	2.1338	-177.3
249.40	3.0180E+5	4.5439	2.1414	-175.7
249.60	3.0190E+5	4.5552	2.1451	-176.8
249.78	3.0200E+5	4.5425	2.1414	-174.2
249.98	3.0210E+5	4.5509	2.1488	-176.1
250.18	3.0220E+5	4.5524	2.1554	-173.4
250.36	3.0230E+5	4.5495	2.1490	-177.4
250.56	3.0240E+5	4.5467	2.1534	-175.2
250.76	3.0250E+5	4.5467	2.1609	-175.4
250.94	3.0260E+5	4.5481	2.1604	-175.6
251.12	3.0270E+5	4.5425	2.1596	-176.1
251.28	3.0280E+5	4.5524	2.1669	-176.0
251.47	3.0290E+5	4.5481	2.1637	-176.2
251.68	3.0300E+5	4.5481	2.1653	-175.7
251.86	3.0310E+5	4.5509	2.1673	-177.5
252.04	3.0320E+5	4.5524	2.1710	-176.1
252.24	3.0330E+5	4.5467	2.1739	-175.0
252.42	3.0340E+5	4.5495	2.1775	-176.3
252.62	3.0350E+5	4.5495	2.1800	-173.6
252.82	3.0360E+5	4.5495	2.1799	-176.1
252.99	3.0370E+5	4.5509	2.1838	-175.3
253.19	3.0380E+5	4.5410	2.1814	-177.1
253.39	3.0390E+5	4.5396	2.1837	-176.6
253.59	3.0400E+5	4.5439	2.1929	-176.9
253.80	3.0410E+5	4.5467	2.1891	-175.3
254.00	3.0420E+5	4.5439	2.1889	-175.7
254.17	3.0430E+5	4.5524	2.1967	-176.0
254.37	3.0440E+5	4.5410	2.1925	-178.1
254.57	3.0450E+5	4.5382	2.1971	-177.8
254.77	3.0460E+5	4.5439	2.1984	-175.1
254.97	3.0470E+5	4.5453	2.2007	-175.6
255.15	3.0480E+5	4.5396	2.1949	-175.8
255.37	3.0490E+5	4.5453	2.2065	-177.7
255.58	3.0500E+5	4.5410	2.2043	-176.3
255.77	3.0510E+5	4.5509	2.2147	-176.4
255.97	3.0520E+5	4.5467	2.2140	-176.3
256.15	3.0530E+5	4.5439	2.2121	-175.3
256.33	3.0540E+5	4.5552	2.2154	-175.1
256.53	3.0550E+5	4.5439	2.2141	-177.7
256.71	3.0560E+5	4.5524	2.2209	-176.3
256.90	3.0570E+5	4.5439	2.2248	-175.5
257.10	3.0580E+5	4.5509	2.2248	-175.8
257.28	3.0590E+5	4.5509	2.2295	-175.4
257.46	3.0600E+5	4.5509	2.2282	-174.8
257.65	3.0610E+5	4.5481	2.2281	-175.4
257.81	3.0620E+5	4.5538	2.2390	-175.6
258.01	3.0630E+5	4.5410	2.2338	-178.9
258.21	3.0640E+5	4.5410	2.2397	-177.0
258.39	3.0650E+5	4.5509	2.2418	-175.4
258.59	3.0660E+5	4.5453	2.2418	-175.5
258.78	3.0670E+5	4.5425	2.2434	-176.1
258.94	3.0680E+5	4.5495	2.2535	-175.6
259.14	3.0690E+5	4.5566	2.2520	-175.1
259.34	3.0700E+5	4.5495	2.2486	-175.5
259.52	3.0710E+5	4.5509	2.2520	-174.4
259.72	3.0720E+5	4.5467	2.2541	-176.6
259.92	3.0730E+5	4.5481	2.2582	-175.4
260.11	3.0740E+5	4.5425	2.2584	-176.7
260.29	3.0750E+5	4.5495	2.2659	-175.6
260.47	3.0760E+5	4.5524	2.2687	-174.1
260.67	3.0770E+5	4.5481	2.2622	-175.8
260.87	3.0780E+5	4.5439	2.2668	-174.2
261.06	3.0790E+5	4.5439	2.2709	-175.0
261.25	3.0800E+5	4.5410	2.2704	-173.4
261.44	3.0810E+5	4.5382	2.2725	-177.2
261.62	3.0820E+5	4.5566	2.2824	-176.8
261.84	3.0830E+5	4.5467	2.2810	-176.6
262.02	3.0840E+5	4.5425	2.2800	-174.1
262.20	3.0850E+5	4.5467	2.2820	-174.2
262.40	3.0860E+5	4.5509	2.2922	-174.7
262.58	3.0870E+5	4.5566	2.2947	-175.9
262.79	3.0880E+5	4.5467	2.2903	-173.9
262.99	3.0890E+5	4.5382	2.2913	-176.1
263.17	3.0900E+5	4.5495	2.2951	-175.6
263.38	3.0910E+5	4.5453	2.2948	-174.2
263.57	3.0920E+5	4.5509	2.3053	-174.9
263.75	3.0930E+5	4.5481	2.2987	-175.8
263.95	3.0940E+5	4.5396	2.2978	-176.7
264.15	3.0950E+5	4.5524	2.3073	-177.9
264.36	3.0960E+5	4.5524	2.3084	-174.9
264.55	3.0970E+5	4.5425	2.3111	-175.2
264.73	3.0980E+5	4.5509	2.3169	-174.0
264.93	3.0990E+5	4.5439	2.3112	-176.6
265.13	3.1000E+5	4.5439	2.3180	-176.0
265.31	3.1010E+5	4.5425	2.3172	-173.4
265.51	3.1020E+5	4.5509	2.3250	-175.4
265.70	3.1030E+5	4.5495	2.3245	-176.1
265.88	3.1040E+5	4.5580	2.3303	-173.7
266.08	3.1050E+5	4.5368	2.3261	-176.6
266.28	3.1060E+5	4.5410	2.3272	-176.3
266.49	3.1070E+5	4.5354	2.3267	-176.3
266.68	3.1080E+5	4.5410	2.3294	-175.3
266.89	3.1090E+5	4.5481	2.3395	-174.9
267.09	3.1100E+5	4.5396	2.3371	-176.3
267.29	3.1110E+5	4.5524	2.3467	-176.8
267.51	3.1120E+5	4.5425	2.3421	-174.7
267.71	3.1130E+5	4.5566	2.3453	-175.9
267.89	3.1140E+5	4.5566	2.3482	-173.9
268.09	3.1150E+5	4.5509	2.3559	-174.9
268.27	3.1160E+5	4.5524	2.3542	-175.1
268.47	3.1170E+5	4.5495	2.3557	-174.1
268.67	3.1180E+5	4.5509	2.3617	-174.3
268.85	3.1190E+5	4.5410	2.3568	-175.8
269.06	3.1200E+5	4.5495	2.3647	-174.0
269.25	3.1210E+5	4.5439	2.3643	-173.6
269.42	3.1220E+5	4.5439	2.3646	-175.7
269.60	3.1230E+5	4.5439	2.3736	-174.2
269.79	3.1240E+5	4.5509	2.3760	-174.2
269.99	3.1250E+5	4.5538	2.3739	-174.6
270.19	3.1260E+5	4.5297	2.3733	-174.2
270.37	3.1270E+5	4.5495	2.3804	-174.1
270.58	3.1280E+5	4.5524	2.3825	-174.8
270.75	3.1290E+5	4.5439	2.3817	-175.2
270.93	3.1300E+5	4.5509	2.3886	-174.2
271.13	3.1310E+5	4.5467	2.3861	-174.7
271.30	3.1320E+5	4.5467	2.3871	-175.9
271.48	3.1330E+5	4.5566	2.3979	-176.6
271.68	3.1340E+5	4.5439	2.3954	-175.4
271.87	3.1350E+5	4.5396	2.3950	-176.0
272.06	3.1360E+5	4.5467	2.4009	-174.3
272.26	3.1370E+5	4.5580	2.4083	-174.8
272.46	3.1380E+5	4.5439	2.4019	-175.1
272.66	3.1390E+5	4.5410	2.4085	-175.1
272.85	3.1400E+5	4.5509	2.4153	-175.3
273.05	3.1410E+5	4.5453	2.4139	-174.9
273.23	3.1420E+5	4.5425	2.4131	-174.2
273.41	3.1430E+5	4.5467	2.4190	-174.7
273.61	3.1440E+5	4.5382	2.4182	-177.7
273.79	3.1450E+5	4.5467	2.4248	-175.4
274.01	3.1460E+5	4.5439	2.4268	-174.5
274.19	3.1470E+5	4.5538	2.4286	-173.5
274.39	3.1480E+5	4.5439	2.4295	-174.5
274.58	3.1490E+5	4.5495	2.4426	-173.9
274.76	3.1500E+5	4.5410	2.4346	-174.1
274.96	3.1510E+5	4.5467	2.4384	-173.3
275.14	3.1520E+5	4.5354	2.4349	-174.9
275.36	3.1530E+5	4.5481	2.4415	-175.7
275.57	3.1540E+5	4.5396	2.4385	-175.1
275.77	3.1550E+5	4.5495	2.4487	-174.5
275.99	3.1560E+5	4.5524	2.4464	-174.1
276.17	3.1570E+5	4.5481	2.4589	-173.5
276.37	3.1580E+5	4.5467	2.4609	-174.6
276.57	3.1590E+5	4.5509	2.4569	-174.0
276.75	3.1600E+5	4.5552	2.4665	-174.2
276.95	3.1610E+5	4.5524	2.4692	-173.9
277.14	3.1620E+5	4.5410	2.4688	-175.6
277.32	3.1630E+5	4.5467	2.4752	-175.0
277.52	3.1640E+5	4.5439	2.4726	-176.6
277.70	3.1650E+5	4.5453	2.4753	-174.8
277.90	3.1660E+5	4.5552	2.4807	-174.2
278.09	3.1670E+5	4.5481	2.4832	-175.3
278.29	3.1680E+5	4.5382	2.4848	-174.8
278.49	3.1690E+5	4.5495	2.4928	-174.9
278.69	3.1700E+5	4.5495	2.4906	-173.9
278.85	3.1710E+5	4.5410	2.4863	-174.0
279.03	3.1720E+5	4.5481	2.5026	-174.9
279.23	3.1730E+5	4.5509	2.5027	-173.0
279.42	3.1740E+5	4.5439	2.4988	-174.4
279.58	3.1750E+5	4.5410	2.4938	-175.3
279.78	3.1760E+5	4.5538	2.5109	-174.0
279.96	3.1770E+5	4.5382	2.5071	-174.5
280.18	3.1780E+5	4.5481	2.5184	-174.6
280.40	3.1790E+5	4.5524	2.5191	-173.9
280.58	3.1800E+5	4.5439	2.5170	-173.0
280.78	3.1810E+5	4.5552	2.5221	-175.2
280.96	3.1820E+5	4.5453	2.5169	-174.3
281.16	3.1830E+5	4.5439	2.5220	-174.7
281.36	3.1840E+5	4.5467	2.5333	-174.7
281.54	3.1850E+5	4.5524	2.5351	-173.0
281.73	3.1860E+5	4.5439	2.5319	-175.5
281.91	3.1870E+5	4.5481	2.5449	-173.0
282.11	3.1880E+5	4.5481	2.5412	-175.1
282.31	3.1890E+5	4.5538	2.5476	-173.3
282.49	3.1900E+5	4.5453	2.5459	-176.8
282.69	3.1910E+5	4.5552	2.5552	-173.2
282.87	3.1920E+5	4.5524	2.5531	-174.0
283.06	3.1930E+5	4.5481	2.5607	-174.8
283.24	3.1940E+5	4.5453	2.5597	-174.3
283.42	3.1950E+5	4.5439	2.5643	-174.7
283.62	3.1960E+5	4.5509	2.5586	-174.0
283.81	3.1970E+5	4.5453	2.5684	-175.4
284.01	3.1980E+5	4.5524	2.5705	-173.9
284.19	3.1990E+5	4.5467	2.5750	-175.6
284.39	3.2000E+5	4.5396	2.5761	-175.9
284.61	3.2010E+5	4.5495	2.5756	-175.8
284.79	3.2020E+5	4.5453	2.5761	-175.4
284.97	3.2030E+5	4.5467	2.5809	-175.6
285.15	3.2040E+5	4.5425	2.5874	-174.9
285.35	3.2050E+5	4.5524	2.5911	-174.8
285.55	3.2060E+5	4.5410	2.5889	-174.7
285.74	3.2070E+5	4.5481	2.6043	-172.5
285.93	3.2080E+5	4.5509	2.6065	-173.5
286.10	3.2090E+5	4.5509	2.6123	-173.6
286.30	3.2100E+5	4.5396	2.6029	-173.6
286.50	3.2110E+5	4.5481	2.6050	-176.4
286.72	3.2120E+5	4.5453	2.6116	-173.7
286.92	3.2130E+5	4.5439	2.6125	-173.7
287.10	3.2140E+5	4.5495	2.6210	-175.4
287.30	3.2150E+5	4.5566	2.6225	-174.7
287.46	3.2160E+5	4.5481	2.6255	-174.0
287.67	3.2170E+5	4.5410	2.6290	-172.8
287.85	3.2180E+5	4.5524	2.6330	-174.5
288.05	3.2190E+5	4.5439	2.6290	-172.9
288.25	3.2200E+5	4.5467	2.6410	-173.4
288.43	3.2210E+5	4.5453	2.6385	-175.1
288.63	3.2220E+5	4.5453	2.6449	-174.5
288.81	3.2230E+5	4.5396	2.6347	-174.4
289.03	3.2240E+5	4.5481	2.6515	-173.9
289.25	3.2250E+5	4.5524	2.6569	-172.7
289.43	3.2260E+5	4.5467	2.6556	-173.5
289.61	3.2270E+5	4.5410	2.6495	-176.0
289.79	3.2280E+5	4.5396	2.6580	-175.4
290.01	3.2290E+5	4.5524	2.6635	-175.0
290.21	3.2300E+5	4.5524	2.6703	-174.6
290.41	3.2310E+5	4.5552	2.6795	-172.8
290.61	3.2320E+5	4.5467	2.6780	-173.7
290.78	3.2330E+5	4.5467	2.6731	-174.0
290.98	3.2340E+5	4.5524	2.6828	-173.7
291.16	3.2350E+5	4.5368	2.6813	-174.6
291.36	3.2360E+5	4.5495	2.6835	-173.6
291.56	3.2370E+5	4.5425	2.6951	-172.9
291.76	3.2380E+5	4.5495	2.7013	-174.3
291.96	3.2390E+5	4.5467	2.6996	-175.1
292.14	3.2400E+5	4.5439	2.7047	-174.9
292.34	3.2410E+5	4.5425	2.7101	-175.0
292.52	3.2420E+5	4.5439	2.7126	-173.0
292.72	3.2430E+5	4.5566	2.7255	-175.1
292.90	3.2440E+5	4.5580	2.7229	-174.3
293.10	3.2450E+5	4.5396	2.7258	-175.2
293.32	3.2460E+5	4.5425	2.7255	-173.3
293.50	3.2470E+5	4.5552	2.7303	-174.9
293.70	3.2480E+5	4.5439	2.7386	-174.2
293.88	3.2490E+5	4.5382	2.7381	-173.6
294.08	3.2500E+5	4.5509	2.7484	-173.9
294.29	3.2510E+5	4.5467	2.7545	-173.0
294.48	3.2520E+5	4.5396	2.7584	-174.2
294.70	3.2530E+5	4.5509	2.7576	-174.8
294.88	3.2540E+5	4.5425	2.7601	-173.4
295.08	3.2550E+5	4.5467	2.7726	-173.6
295.27	3.2560E+5	4.5524	2.7799	-174.9
295.46	3.2570E+5	4.5481	2.7812	-172.4
295.63	3.2580E+5	4.5439	2.7812	-173.6
295.81	3.2590E+5	4.5410	2.7798	-174.9
296.00	3.2600E+5	4.5495	2.7931	-174.0
296.18	3.2610E+5	4.5453	2.7956	-174.2
296.38	3.2620E+5	4.5481	2.7989	-173.7
296.55	3.2630E+5	4.5425	2.8011	-172.5
296.73	3.2640E+5	4.5495	2.8068	-174.0
296.91	3.2650E+5	4.5481	2.8124	-172.8
297.11	3.2660E+5	4.5524	2.8223	-172.2
297.30	3.2670E+5	4.5396	2.8222	-174.7
297.49	3.2680E+5	4.5495	2.8266	-174.7
297.71	3.2690E+5	4.5467	2.8372	-173.0
297.89	3.2700E+5	4.5396	2.8250	-174.9
298.11	3.2710E+5	4.5481	2.8317	-174.1
298.31	3.2720E+5	4.5439	2.8430	-173.9
298.49	3.2730E+5	4.5453	2.8434	-173.5
298.64	3.2740E+5	4.5410	2.8471	-173.3
298.81	3.2750E+5	4.5382	2.8501	-175.1
298.97	3.2760E+5	4.5425	2.8624	-173.3
299.16	3.2770E+5	4.5467	2.8720	-171.6
299.34	3.2780E+5	4.5538	2.8769	-171.3
299.49	3.2790E+5	4.5425	2.8710	-172.5
299.65	3.2800E+5	4.5509	2.8803	-173.6
299.81	3.2810E+5	4.5524	2.8868	-173.7
299.97	3.2820E+5	4.5467	2.8875	-171.8
300.12	3.2830E+5	4.5453	2.8892	-175.1
300.29	3.2840E+5	4.5524	2.8952	-172.3
300.45	3.2850E+5	4.5354	2.8950	-173.8
300.62	3.2860E+5	4.5410	2.9041	-172.4
300.82	3.2870E+5	4.5396	2.9048	-174.1
300.99	3.2880E+5	4.5410	2.9032	-172.1
301.17	3.2890E+5	4.5410	2.9096	-173.3
301.32	3.2900E+5	4.5396	2.9121	-171.6
301.50	3.2910E+5	4.5552	2.9331	-174.2
301.69	3.2920E+5	4.5410	2.9226	-173.8
301.88	3.2930E+5	4.5453	2.9273	-173.0
302.07	3.2940E+5	4.5410	2.9348	-172.5
302.25	3.2950E+5	4.5425	2.9283	-172.9
302.43	3.2960E+5	4.5481	2.9445	-173.8
302.60	3.2970E+5	4.5467	2.9489	-173.9
302.78	3.2980E+5	4.5425	2.9457	-173.1
302.95	3.2990E+5	4.5509	2.9611	-172.2
303.15	3.3000E+5	4.5410	2.9539	-173.1
303.33	3.3010E+5	4.5467	2.9676	-171.7
303.53	3.3020E+5	4.5509	2.9694	-174.6
303.70	3.3030E+5	4.5382	2.9609	-173.6
303.90	3.3040E+5	4.5495	2.9758	-174.7
304.10	3.3050E+5	4.5410	2.9691	-172.3
304.26	3.3060E+5	4.5481	2.9827	-171.8
304.44	3.3070E+5	4.5509	2.9875	-170.8
304.63	3.3080E+5	4.5439	2.9805	-172.4
304.83	3.3090E+5	4.5538	2.9970	-173.0
305.01	3.3100E+5	4.5368	2.9882	-172.6
305.21	3.3110E+5	4.5467	2.9977	-173.6
305.39	3.3120E+5	4.5453	3.0094	-170.2
305.58	3.3130E+5	4.5410	3.0090	-173.5
305.74	3.3140E+5	4.5453	3.0119	-171.5
305.93	3.3150E+5	4.5396	3.0140	-172.3
306.14	3.3160E+5	4.5439	3.0232	-173.5
306.33	3.3170E+5	4.5538	3.0230	-173.2
306.51	3.3180E+5	4.5467	3.0233	-173.2
306.68	3.3190E+5	4.5453	3.0226	-174.7
306.86	3.3200E+5	4.5467	3.0418	-171.9
307.04	3.3210E+5	4.5368	3.0332	-171.7
307.26	3.3220E+5	4.5495	3.0393	-170.7
307.44	3.3230E+5	4.5382	3.0472	-172.5
307.66	3.3240E+5	4.5509	3.0533	-174.6
307.84	3.3250E+5	4.5538	3.0557	-172.6
308.02	3.3260E+5	4.5453	3.0553	-171.1
308.20	3.3270E+5	4.5453	3.0606	-172.7
308.37	3.3280E+5	4.5495	3.0670	-172.4
308.55	3.3290E+5	4.5552	3.0772	-170.7
308.74	3.3300E+5	4.5425	3.0680	-170.6
308.94	3.3310E+5	4.5396	3.0833	-171.6
309.14	3.3320E+5	4.5410	3.0731	-173.3
309.33	3.3330E+5	4.5439	3.0902	-172.1
309.50	3.3340E+5	4.5467	3.1014	-171.6
309.70	3.3350E+5	4.5481	3.1005	-169.9
309.87	3.3360E+5	4.5382	3.0877	-170.9
310.08	3.3370E+5	4.5524	3.1035	-173.5
310.30	3.3380E+5	4.5396	3.1060	-171.5
310.48	3.3390E+5	4.5467	3.1100	-173.7
310.68	3.3400E+5	4.5453	3.1075	-172.6
310.85	3.3410E+5	4.5453	3.1118	-169.8
311.03	3.3420E+5	4.5453	3.1237	-172.0
311.20	3.3430E+5	4.5439	3.1268	-169.8
311.40	3.3440E+5	4.5467	3.1291	-170.6
311.56	3.3450E+5	4.5481	3.1359	-171.6
311.75	3.3460E+5	4.5467	3.1393	-171.2
311.91	3.3470E+5	4.5453	3.1458	-172.6
312.10	3.3480E+5	4.5453	3.1497	-171.6
312.26	3.3490E+5	4.5368	3.1438	-173.8
312.46	3.3500E+5	4.5439	3.1562	-172.7
312.66	3.3510E+5	4.5439	3.1639	-171.4
312.85	3.3520E+5	4.5467	3.1745	-171.5
313.03	3.3530E+5	4.5410	3.1760	-172.0
313.18	3.3540E+5	4.5439	3.1820	-171.0
313.36	3.3550E+5	4.5467	3.1760	-173.4
313.53	3.3560E+5	4.5382	3.1893	-170.1
313.76	3.3570E+5	4.5453	3.1872	-171.0
313.94	3.3580E+5	4.5425	3.1957	-172.4
314.12	3.3590E+5	4.5410	3.1987	-171.9
314.29	3.3600E+5	4.5481	3.2134	-171.1
314.49	3.3610E+5	4.5481	3.2043	-170.6
314.67	3.3620E+5	4.5467	3.2217	-171.2
314.87	3.3630E+5	4.5382	3.2223	-170.9
315.06	3.3640E+5	4.5368	3.2231	-170.9
315.24	3.3650E+5	4.5410	3.2346	-171.8
315.42	3.3660E+5	4.5453	3.2455	-169.3
315.62	3.3670E+5	4.5538	3.2530	-169.9
315.81	3.3680E+5	4.5453	3.2531	-171.1
315.97	3.3690E+5	4.5453	3.2509	-168.9
316.15	3.3700E+5	4.5410	3.2568	-172.1
316.32	3.3710E+5	4.5495	3.2729	-169.9
316.52	3.3720E+5	4.5453	3.2740	-172.1
316.69	3.3730E+5	4.5396	3.2793	-171.2
316.89	3.3740E+5	4.5410	3.2766	-171.7
317.07	3.3750E+5	4.5382	3.2830	-170.3
317.27	3.3760E+5	4.5481	3.2880	-169.8
317.45	3.3770E+5	4.5425	3.3001	-170.3
317.65	3.3780E+5	4.5396	3.2927	-169.7
317.85	3.3790E+5	4.5453	3.3105	-169.6
318.07	3.3800E+5	4.5453	3.3083	-170.5
318.23	3.3810E+5	4.5509	3.3118	-171.4
318.42	3.3820E+5	4.5538	3.3183	-170.9
318.58	3.3830E+5	4.5425	3.3210	-172.5
318.77	3.3840E+5	4.5509	3.3364	-171.7
318.95	3.3850E+5	4.5495	3.3356	-169.0
319.13	3.3860E+5	4.5495	3.3408	-169.5
319.31	3.3870E+5	4.5509	3.3440	-168.9
319.48	3.3880E+5	4.5396	3.3501	-170.7
319.68	3.3890E+5	4.5439	3.3487	-170.5
319.86	3.3900E+5	4.5439	3.3612	-169.7
320.06	3.3910E+5	4.5354	3.3559	-170.8
320.25	3.3920E+5	4.5453	3.3651	-172.1
320.45	3.3930E+5	4.5453	3.3718	-169.5
320.61	3.3940E+5	4.5453	3.3824	-168.9
320.81	3.3950E+5	4.5467	3.3778	-169.3
321.00	3.3960E+5	4.5495	3.3916	-169.6
321.19	3.3970E+5	4.5425	3.3913	-172.0
321.36	3.3980E+5	4.5495	3.4029	-170.9
321.54	3.3990E+5	4.5481	3.4124	-169.5
321.73	3.4000E+5	4.5425	3.4025	-168.6
321.93	3.4010E+5	4.5524	3.4225	-169.2
322.11	3.4020E+5	4.5439	3.4101	-168.5
322.29	3.4030E+5	4.5410	3.4208	-170.5
322.46	3.4040E+5	4.5425	3.4313	-169.7
322.64	3.4050E+5	4.5509	3.4346	-170.2
322.81	3.4060E+5	4.5453	3.4398	-168.8
323.01	3.4070E+5	4.5481	3.4453	-168.9
323.17	3.4080E+5	4.5410	3.4512	-170.3
323.36	3.4090E+5	4.5495	3.4630	-169.7
323.52	3.4100E+5	4.5453	3.4672	-169.9
323.72	3.4110E+5	4.5425	3.4689	-168.7
323.90	3.4120E+5	4.5453	3.4691	-170.1
324.07	3.4130E+5	4.5481	3.4794	-167.4
324.25	3.4140E+5	4.5453	3.4824	-168.8
324.42	3.4150E+5	4.5467	3.4958	-168.6
324.62	3.4160E+5	4.5382	3.4838	-170.1
324.82	3.4170E+5	4.5453	3.5047	-170.2
325.04	3.4180E+5	4.5439	3.4989	-172.7
325.20	3.4190E+5	4.5439	3.5152	-170.8
325.38	3.4200E+5	4.5453	3.5208	-167.1
325.55	3.4210E+5	4.5439	3.5246	-170.0
325.75	3.4220E+5	4.5481	3.5265	-167.4
325.92	3.4230E+5	4.5410	3.5358	-170.9
326.10	3.4240E+5	4.5481	3.5410	-168.3
326.26	3.4250E+5	4.5396	3.5427	-170.1
326.47	3.4260E+5	4.5425	3.5484	-169.0
326.63	3.4270E+5	4.5467	3.5556	-168.6
326.83	3.4280E+5	4.5467	3.5692	-170.2
327.00	3.4290E+5	4.5524	3.5709	-168.4
327.18	3.4300E+5	4.5467	3.5682	-169.7
327.35	3.4310E+5	4.5495	3.5881	-168.9
327.55	3.4320E+5	4.5439	3.5986	-169.0
327.71	3.4330E+5	4.5410	3.5849	-169.6
327.90	3.4340E+5	4.5382	3.5948	-172.2
328.08	3.4350E+5	4.5396	3.5938	-169.2
328.26	3.4360E+5	4.5382	3.6081	-171.3
328.43	3.4370E+5	4.5509	3.6154	-170.6
328.63	3.4380E+5	4.5425	3.6084	-169.9
328.79	3.4390E+5	4.5410	3.6103	-168.5
328.96	3.4400E+5	4.5396	3.6253	-168.9
329.14	3.4410E+5	4.5382	3.6313	-168.1
329.33	3.4420E+5	4.5439	3.6361	-168.4
329.53	3.4430E+5	4.5538	3.6521	-168.5
329.71	3.4440E+5	4.5368	3.6519	-166.1
329.89	3.4450E+5	4.5439	3.6627	-167.8
330.09	3.4460E+5	4.5453	3.6651	-169.3
330.27	3.4470E+5	4.5410	3.6686	-169.9
330.46	3.4480E+5	4.5354	3.6796	-170.4
330.64	3.4490E+5	4.5439	3.6803	-168.2
330.84	3.4500E+5	4.5453	3.6887	-167.7
331.01	3.4510E+5	4.5425	3.7027	-169.2
331.21	3.4520E+5	4.5382	3.7023	-170.6
331.37	3.4530E+5	4.5425	3.7018	-169.2
331.57	3.4540E+5	4.5439	3.7207	-169.5
331.75	3.4550E+5	4.5410	3.7266	-167.5
331.94	3.4560E+5	4.5425	3.7279	-168.8
332.11	3.4570E+5	4.5495	3.7389	-169.5
332.29	3.4580E+5	4.5439	3.7447	-169.8
332.45	3.4590E+5	4.5453	3.7569	-168.5
332.65	3.4600E+5	4.5439	3.7574	-169.6
332.82	3.4610E+5	4.5453	3.7576	-169.4
333.00	3.4620E+5	4.5439	3.7629	-170.7
333.17	3.4630E+5	4.5410	3.7744	-168.3
333.35	3.4640E+5	4.5396	3.7782	-168.6
333.55	3.4650E+5	4.5396	3.7962	-169.1
333.73	3.4660E+5	4.5425	3.7965	-168.9
333.92	3.4670E+5	4.5439	3.8006	-169.1
334.10	3.4680E+5	4.5467	3.8065	-166.7
334.28	3.4690E+5	4.5410	3.8144	-167.7
334.46	3.4700E+5	4.5425	3.8150	-167.2
334.63	3.4710E+5	4.5495	3.8370	-168.5
334.83	3.4720E+5	4.5439	3.8396	-165.7
335.00	3.4730E+5	4.5439	3.8467	-168.7
335.18	3.4740E+5	4.5425	3.8525	-169.2
335.35	3.4750E+5	4.5453	3.8683	-169.2
335.55	3.4760E+5	4.5467	3.8751	-170.0
335.71	3.4770E+5	4.5467	3.8782	-168.8
335.90	3.4780E+5	4.5425	3.8899	-167.8
336.08	3.4790E+5	4.5425	3.8928	-167.4
336.26	3.4800E+5	4.5425	3.8986	-169.0
336.43	3.4810E+5	4.5410	3.9096	-167.7
336.61	3.4820E+5	4.5425	3.9247	-167.1
336.79	3.4830E+5	4.5524	3.9375	-168.2
336.98	3.4840E+5	4.5481	3.9369	-169.0
337.14	3.4850E+5	4.5425	3.9418	-166.9
337.33	3.4860E+5	4.5382	3.9500	-167.3
337.52	3.4870E+5	4.5368	3.9732	-167.9
337.71	3.4880E+5	4.5495	3.9795	-168.4
337.91	3.4890E+5	4.5481	3.9885	-169.2
338.09	3.4900E+5	4.5354	3.9913	-169.3
338.27	3.4910E+5	4.5382	4.0059	-168.4
338.47	3.4920E+5	4.5495	4.0161	-167.6
338.66	3.4930E+5	4.5326	4.0239	-170.0
338.86	3.4940E+5	4.5439	4.0336	-169.3
339.06	3.4950E+5	4.5410	4.0391	-168.5
339.24	3.4960E+5	4.5495	4.0570	-167.9
339.40	3.4970E+5	4.5453	4.0613	-167.6
339.61	3.4980E+5	4.5453	4.0654	-166.1
339.77	3.4990E+5	4.5467	4.0770	-166.5
339.95	3.5000E+5	4.5509	4.0854	-168.0
340.12	3.5010E+5	4.5439	4.0902	-168.2
340.32	3.5020E+5	4.5481	4.1081	-166.6
340.49	3.5030E+5	4.5340	4.1104	-168.2
340.69	3.5040E+5	4.5382	4.1138	-166.5
340.85	3.5050E+5	4.5425	4.1281	-167.5
341.07	3.5060E+5	4.5340	4.1313	-168.3
341.25	3.5070E+5	4.5410	4.1545	-166.7
341.47	3.5080E+5	4.5509	4.1647	-168.1
341.63	3.5090E+5	4.5410	4.1707	-168.0
341.82	3.5100E+5	4.5340	4.1722	-167.1
342.02	3.5110E+5	4.5368	4.1825	-166.1
342.20	3.5120E+5	4.5425	4.1883	-166.8
342.38	3.5130E+5	4.5481	4.2032	-166.1
342.58	3.5140E+5	4.5368	4.2004	-166.1
342.76	3.5150E+5	4.5410	4.1991	-166.4
342.98	3.5160E+5	4.5425	4.2354	-166.9
343.16	3.5170E+5	4.5481	4.2323	-166.1
343.33	3.5180E+5	4.5467	4.2443	-167.0
343.51	3.5190E+5	4.5467	4.2480	-166.3
343.68	3.5200E+5	4.5410	4.2540	-165.0
343.86	3.5210E+5	4.5453	4.2712	-166.8
344.05	3.5220E+5	4.5467	4.2639	-166.1
344.23	3.5230E+5	4.5368	4.2753	-167.9
344.41	3.5240E+5	4.5453	4.2861	-166.7
344.63	3.5250E+5	4.5425	4.2989	-166.5
344.79	3.5260E+5	4.5382	4.2883	-168.9
344.99	3.5270E+5	4.5425	4.3197	-166.1
345.19	3.5280E+5	4.5453	4.3196	-167.1
345.38	3.5290E+5	4.5453	4.3302	-164.3
345.54	3.5300E+5	4.5439	4.3456	-165.7
345.74	3.5310E+5	4.5410	4.3257	-167.1
345.93	3.5320E+5	4.5354	4.3476	-165.9
346.14	3.5330E+5	4.5382	4.3490	-164.1
346.31	3.5340E+5	4.5354	4.3593	-165.8
346.49	3.5350E+5	4.5410	4.3814	-165.8
346.69	3.5360E+5	4.5396	4.3742	-167.3
346.89	3.5370E+5	4.5439	4.3863	-166.3
347.07	3.5380E+5	4.5425	4.4046	-165.0
347.27	3.5390E+5	4.5354	4.3916	-166.7
347.47	3.5400E+5	4.5439	4.4167	-165.0
347.69	3.5410E+5	4.5453	4.4252	-164.6
347.85	3.5420E+5	4.5425	4.4230	-164.7
348.04	3.5430E+5	4.5425	4.4324	-166.6
348.22	3.5440E+5	4.5368	4.4377	-167.6
348.40	3.5450E+5	4.5297	4.4501	-163.9
348.59	3.5460E+5	4.5354	4.4548	-164.2
348.75	3.5470E+5	4.5410	4.4648	-163.6
348.97	3.5480E+5	4.5410	4.4883	-165.3
349.15	3.5490E+5	4.5382	4.4915	-166.3
349.35	3.5500E+5	4.5368	4.4969	-166.7
349.52	3.5510E+5	4.5396	4.5190	-165.2
349.72	3.5520E+5	4.5425	4.5184	-165.3
349.90	3.5530E+5	4.5354	4.5184	-167.3
350.10	3.5540E+5	4.5382	4.5354	-165.9
350.26	3.5550E+5	4.5368	4.5538	-164.3
350.47	3.5560E+5	4.5382	4.5524	-165.0
350.63	3.5570E+5	4.5311	4.5637	-164.7
350.81	3.5580E+5	4.5354	4.5750	-164.4
351.00	3.5590E+5	4.5481	4.6019	-164.7
351.23	3.5600E+5	4.5340	4.5962	-166.9
351.43	3.5610E+5	4.5340	4.6075	-165.3
351.63	3.5620E+5	4.5410	4.6315	-164.1
351.83	3.5630E+5	4.5354	4.6245	-164.8
352.03	3.5640E+5	4.5340	4.6443	-163.8
352.23	3.5650E+5	4.5453	4.6584	-164.8
352.43	3.5660E+5	4.5326	4.6584	-164.6
352.63	3.5670E+5	4.5439	4.6782	-162.9
352.81	3.5680E+5	4.5368	4.6825	-163.5
353.03	3.5690E+5	4.5368	4.6867	-164.5
353.19	3.5700E+5	4.5467	4.7150	-165.5
353.41	3.5710E+5	4.5382	4.7150	-163.3
353.59	3.5720E+5	4.5410	4.7277	-165.7
353.79	3.5730E+5	4.5509	4.7433	-164.5
353.97	3.5740E+5	4.5382	4.7447	-165.4
354.18	3.5750E+5	4.5283	4.7419	-165.1
354.34	3.5760E+5	4.5368	4.7673	-165.0
354.54	3.5770E+5	4.5410	4.7815	-164.2
354.72	3.5780E+5	4.5396	4.7871	-164.2
354.92	3.5790E+5	4.5410	4.7956	-163.9
355.12	3.5800E+5	4.5425	4.8126	-161.5
355.29	3.5810E+5	4.5439	4.8225	-163.4
355.47	3.5820E+5	4.5354	4.8253	-163.0
355.67	3.5830E+5	4.5368	4.8493	-161.5
355.85	3.5840E+5	4.5368	4.8522	-161.2
356.04	3.5850E+5	4.5410	4.8649	-162.7
356.24	3.5860E+5	4.5396	4.8918	-162.1
356.44	3.5870E+5	4.5368	4.9031	-162.9
356.62	3.5880E+5	4.5311	4.9073	-161.4
356.79	3.5890E+5	4.5368	4.9285	-162.5
356.99	3.5900E+5	4.5410	4.9356	-163.0
357.17	3.5910E+5	4.5354	4.9455	-164.0
357.38	3.5920E+5	4.5354	4.9526	-162.0
357.55	3.5930E+5	4.5382	4.9625	-162.0
357.73	3.5940E+5	4.5396	4.9710	-161.8
357.92	3.5950E+5	4.5396	4.9794	-162.7
358.08	3.5960E+5	4.5311	4.9908	-162.5
358.25	3.5970E+5	4.5269	5.0021	-161.4
358.43	3.5980E+5	4.5382	5.0120	-161.2
358.61	3.5990E+5	4.5326	5.0176	-161.9
358.76	3.6000E+5	4.5326	5.0318	-161.7
358.96	3.6010E+5	4.5354	5.0417	-162.8
359.13	3.6020E+5	4.5368	5.0586	-161.1
359.33	3.6030E+5	4.5425	5.0742	-159.8
359.51	3.6040E+5	4.5410	5.0784	-161.6
359.71	3.6050E+5	4.5368	5.0813	-164.6
359.89	3.6060E+5	4.5340	5.0898	-162.3
360.08	3.6070E+5	4.5382	5.0912	-161.7
360.24	3.6080E+5	4.5354	5.0926	-161.6
360.41	3.6090E+5	4.5340	5.1336	-162.3
360.61	3.6100E+5	4.5326	5.1463	-160.8
360.79	3.6110E+5	4.5340	5.1534	-160.9
360.98	3.6120E+5	4.5382	5.1647	-162.0
361.16	3.6130E+5	4.5326	5.1817	-161.0
361.34	3.6140E+5	4.5354	5.1986	-160.2
361.52	3.6150E+5	4.5354	5.2085	-159.7
361.71	3.6160E+5	4.5354	5.2213	-161.2
361.89	3.6170E+5	4.5340	5.2298	-162.2
362.07	3.6180E+5	4.5311	5.2467	-162.1
362.24	3.6190E+5	4.5354	5.2694	-160.5
362.44	3.6200E+5	4.5340	5.2595	-159.1
362.61	3.6210E+5	4.5340	5.2835	-160.3
362.79	3.6220E+5	4.5368	5.2920	-161.0
362.97	3.6230E+5	4.5311	5.2934	-162.0
363.14	3.6240E+5	4.5283	5.3160	-161.4
363.34	3.6250E+5	4.5340	5.3316	-161.4
363.50	3.6260E+5	4.5269	5.3401	-160.9
363.70	3.6270E+5	4.5283	5.3641	-159.1
363.89	3.6280E+5	4.5297	5.3811	-160.9
364.07	3.6290E+5	4.5283	5.3896	-160.1
364.25	3.6300E+5	4.5269	5.3981	-161.2
364.44	3.6310E+5	4.5269	5.4249	-159.4
364.62	3.6320E+5	4.5269	5.4490	-159.5
364.80	3.6330E+5	4.5269	5.4560	-159.7
364.99	3.6340E+5	4.5354	5.4772	-160.2
365.17	3.6350E+5	4.5297	5.4900	-159.6
365.35	3.6360E+5	4.5368	5.5112	-158.7
365.53	3.6370E+5	4.5368	5.5282	-158.5
365.70	3.6380E+5	4.5396	5.5366	-159.2
365.88	3.6390E+5	4.5368	5.5508	-160.2
366.06	3.6400E+5	4.5368	5.5748	-159.5
366.25	3.6410E+5	4.5326	5.5748	-158.9
366.43	3.6420E+5	4.5283	5.5946	-158.8
366.61	3.6430E+5	4.5255	5.6116	-158.6
366.78	3.6440E+5	4.5297	5.6314	-158.5
366.98	3.6450E+5	4.5354	5.6314	-160.1
367.15	3.6460E+5	4.5227	5.6526	-159.5
367.35	3.6470E+5	4.5269	5.6767	-160.9
367.53	3.6480E+5	4.5311	5.6795	-159.4
367.71	3.6490E+5	4.5269	5.6993	-159.2
367.88	3.6500E+5	4.5311	5.7191	-159.2
368.08	3.6510E+5	4.5255	5.7276	-157.9
368.25	3.6520E+5	4.5241	5.7431	-158.4
368.44	3.6530E+5	4.5255	5.7657	-157.3
368.63	3.6540E+5	4.5297	5.7912	-158.6
368.81	3.6550E+5	4.5340	5.7912	-158.0
368.99	3.6560E+5	4.5297	5.8053	-157.6
369.16	3.6570E+5	4.5297	5.8223	-158.9
369.36	3.6580E+5	4.5297	5.8237	-159.4
369.53	3.6590E+5	4.5297	5.8506	-158.9
369.72	3.6600E+5	4.5269	5.8676	-158.2
369.89	3.6610E+5	4.5340	5.8902	-157.9
370.09	3.6620E+5	4.5227	5.8959	-157.0
370.26	3.6630E+5	4.5297	5.9326	-155.8
370.44	3.6640E+5	4.5354	5.9510	-157.5
370.62	3.6650E+5	4.5326	5.9581	-156.5
370.81	3.6660E+5	4.5297	5.9765	-157.1
370.99	3.6670E+5	4.5283	5.9892	-156.5
371.17	3.6680E+5	4.5255	6.0090	-157.2
371.35	3.6690E+5	4.5326	6.0401	-156.4
371.54	3.6700E+5	4.5255	6.0585	-157.8
371.70	3.6710E+5	4.5297	6.0755	-156.2
371.89	3.6720E+5	4.5227	6.0896	-157.5
372.05	3.6730E+5	4.5255	6.1037	-155.8
372.25	3.6740E+5	4.5255	6.1250	-156.3
372.44	3.6750E+5	4.5241	6.1377	-157.1
372.62	3.6760E+5	4.5297	6.1575	-155.6
372.80	3.6770E+5	4.5283	6.1730	-156.8
372.98	3.6780E+5	4.5283	6.1872	-156.3
373.17	3.6790E+5	4.5241	6.2141	-156.5
373.37	3.6800E+5	4.5241	6.2155	-155.9
373.53	3.6810E+5	4.5255	6.2423	-154.9
373.72	3.6820E+5	4.5283	6.2706	-155.3
373.92	3.6830E+5	4.5368	6.2933	-155.6
374.08	3.6840E+5	4.5241	6.2947	-154.9
374.28	3.6850E+5	4.5283	6.3159	-156.2
374.45	3.6860E+5	4.5311	6.3201	-155.3
374.63	3.6870E+5	4.5326	6.3413	-154.0
374.81	3.6880E+5	4.5283	6.3541	-157.1
375.01	3.6890E+5	4.5269	6.3654	-153.7
375.18	3.6900E+5	4.5170	6.3838	-157.0
375.36	3.6910E+5	4.5283	6.4050	-155.4
375.55	3.6920E+5	4.5255	6.4304	-155.3
375.73	3.6930E+5	4.5311	6.4474	-154.2
375.93	3.6940E+5	4.5184	6.4587	-155.3
376.09	3.6950E+5	4.5269	6.4870	-154.6
376.29	3.6960E+5	4.5283	6.5040	-153.0
376.48	3.6970E+5	4.5269	6.5252	-154.5
376.68	3.6980E+5	4.5241	6.5181	-154.5
376.86	3.6990E+5	4.5212	6.5605	-153.1
377.04	3.7000E+5	4.5198	6.5803	-154.0
377.24	3.7010E+5	4.5227	6.5832	-155.4
377.41	3.7020E+5	4.5241	6.5860	-154.4
377.59	3.7030E+5	4.5297	6.6015	-153.7
377.76	3.7040E+5	4.5311	6.6298	-152.0
377.96	3.7050E+5	4.5269	6.6355	-153.5
378.14	3.7060E+5	4.5212	6.6496	-157.5
378.31	3.7070E+5	4.5241	6.6708	-153.7
378.50	3.7080E+5	4.5227	6.6793	-154.5
378.65	3.7090E+5	4.5241	6.7161	-153.1
378.86	3.7100E+5	4.5227	6.7203	-153.7
379.04	3.7110E+5	4.5241	6.7401	-154.3
379.22	3.7120E+5	4.5212	6.7543	-152.5
379.40	3.7130E+5	4.5241	6.7769	-153.0
379.59	3.7140E+5	4.5212	6.7911	-151.9
379.77	3.7150E+5	4.5212	6.8165	-153.4
379.95	3.7160E+5	4.5198	6.8307	-153.1
380.13	3.7170E+5	4.5269	6.8575	-151.3
380.32	3.7180E+5	4.5170	6.8745	-151.5
380.52	3.7190E+5	4.5283	6.9014	-152.5
380.70	3.7200E+5	4.5227	6.9113	-151.7
380.88	3.7210E+5	4.5198	6.9424	-151.0
381.07	3.7220E+5	4.5227	6.9509	-151.1
381.25	3.7230E+5	4.5184	6.9735	-152.3
381.45	3.7240E+5	4.5198	6.9890	-152.2
381.62	3.7250E+5	4.5269	7.0117	-151.6
381.81	3.7260E+5	4.5269	7.0357	-150.5
381.98	3.7270E+5	4.5184	7.0569	-150.9
382.17	3.7280E+5	4.5142	7.0796	-149.5
382.35	3.7290E+5	4.5170	7.0937	-150.3
382.53	3.7300E+5	4.5142	7.1149	-149.4
382.73	3.7310E+5	4.5085	7.1432	-151.3
382.93	3.7320E+5	4.5204	7.1503	-151.9
383.13	3.7330E+5	4.5099	7.1771	-149.9
383.33	3.7340E+5	4.5201	7.2082	-151.6
383.55	3.7350E+5	4.5212	7.2196	-150.1
383.71	3.7360E+5	4.5198	7.2408	-149.0
383.89	3.7370E+5	4.5170	7.2648	-149.7
384.09	3.7380E+5	4.5142	7.2959	-149.0
384.28	3.7390E+5	4.5184	7.2988	-150.1
384.46	3.7400E+5	4.5170	7.3256	-148.9
384.64	3.7410E+5	4.5170	7.3483	-150.5
384.84	3.7420E+5	4.5099	7.3751	-148.8
385.04	3.7430E+5	4.5143	7.3963	-149.9
385.23	3.7440E+5	4.5241	7.4246	-147.9
385.42	3.7450E+5	4.5170	7.4260	-148.8
385.59	3.7460E+5	4.5227	7.4699	-149.3
385.79	3.7470E+5	4.5170	7.4967	-148.5
385.97	3.7480E+5	4.5128	7.5151	-148.5
386.17	3.7490E+5	4.5156	7.5392	-147.1
386.36	3.7500E+5	4.5156	7.5675	-148.2
386.54	3.7510E+5	4.5170	7.5802	-147.3
386.72	3.7520E+5	4.5128	7.6113	-147.3
386.90	3.7530E+5	4.5184	7.6339	-149.0
387.11	3.7540E+5	4.5128	7.6509	-150.0
387.27	3.7550E+5	4.5113	7.7004	-146.4
387.49	3.7560E+5	4.5054	7.7258	-147.1
387.67	3.7570E+5	4.5128	7.7428	-148.4
387.87	3.7580E+5	4.5142	7.7711	-147.5
388.07	3.7590E+5	4.5128	7.8192	-146.6
388.25	3.7600E+5	4.5057	7.8390	-146.5
388.47	3.7610E+5	4.5111	7.8560	-145.9
388.65	3.7620E+5	4.5081	7.9012	-146.0
388.85	3.7630E+5	4.5218	7.9380	-144.8
389.05	3.7640E+5	4.5057	7.9550	-146.3
389.23	3.7650E+5	4.5130	7.9903	-144.3
389.45	3.7660E+5	4.5128	8.0257	-145.0
389.63	3.7670E+5	4.5071	8.0455	-147.1
389.83	3.7680E+5	4.5079	8.0794	-143.0
390.01	3.7690E+5	4.5118	8.1176	-144.2
390.21	3.7700E+5	4.5142	8.1430	-146.6
390.41	3.7710E+5	4.5128	8.1699	-144.4
390.60	3.7720E+5	4.5170	8.1996	-144.6
390.80	3.7730E+5	4.5085	8.2392	-144.4
391.00	3.7740E+5	4.5106	8.2548	-144.1
391.20	3.7750E+5	4.5054	8.2746	-144.3
391.38	3.7760E+5	4.5112	8.3014	-142.2
391.54	3.7770E+5	4.5101	8.3325	-143.2
391.74	3.7780E+5	4.5123	8.3637	-141.9
391.94	3.7790E+5	4.5128	8.3891	-143.2
392.14	3.7800E+5	4.5071	8.3919	-142.9
392.33	3.7810E+5	4.5166	8.4315	-142.8
392.54	3.7820E+5	4.5085	8.4641	-142.0
392.74	3.7830E+5	4.5072	8.4895	-143.5
392.93	3.7840E+5	4.5067	8.5065	-140.5
393.12	3.7850E+5	4.5122	8.5602	-142.6
393.32	3.7860E+5	4.5057	8.5730	-143.7
393.52	3.7870E+5	4.5061	8.6012	-142.5
393.71	3.7880E+5	4.5095	8.6012	-141.1
393.87	3.7890E+5	4.5130	8.6437	-141.9
394.09	3.7900E+5	4.5113	8.6918	-142.2
394.29	3.7910E+5	4.5050	8.6833	-140.8
394.47	3.7920E+5	4.5094	8.7172	-142.1
394.65	3.7930E+5	4.5041	8.7413	-139.7
394.85	3.7940E+5	4.5068	8.7554	-139.6
395.04	3.7950E+5	4.5041	8.8021	-139.3
395.22	3.7960E+5	4.5071	8.8120	-140.5
395.42	3.7970E+5	4.5046	8.8742	-140.0
395.60	3.7980E+5	4.5029	8.8855	-139.0
395.79	3.7990E+5	4.5041	8.9237	-137.4
395.97	3.8000E+5	4.5063	8.9590	-139.4
396.15	3.8010E+5	4.5082	8.9704	-138.9
396.33	3.8020E+5	4.4954	8.9944	-138.9
396.52	3.8030E+5	4.5091	9.0227	-139.3
396.72	3.8040E+5	4.5051	9.0510	-139.0
396.90	3.8050E+5	4.5046	9.0764	-137.8
397.10	3.8060E+5	4.5055	9.0948	-138.1
397.28	3.8070E+5	4.5031	9.1457	-135.8
397.46	3.8080E+5	4.5019	9.1712	-136.3
397.67	3.8090E+5	4.5063	9.1980	-137.1
397.85	3.8100E+5	4.5044	9.2362	-136.8
398.05	3.8110E+5	4.5014	9.2688	-135.4
398.23	3.8120E+5	4.5005	9.2914	-137.8
398.40	3.8130E+5	4.5031	9.3253	-136.4
398.60	3.8140E+5	4.4973	9.3480	-136.8
398.76	3.8150E+5	4.4985	9.3819	-135.5
398.96	3.8160E+5	4.4990	9.4144	-137.2
399.14	3.8170E+5	4.5040	9.4399	-136.3
399.33	3.8180E+5	4.4980	9.4724	-135.1
399.53	3.8190E+5	4.5014	9.5233	-133.1
399.71	3.8200E+5	4.5012	9.5276	-134.8
399.89	3.8210E+5	4.5030	9.5615	-134.6
400.08	3.8220E+5	4.4975	9.6039	-134.8
400.28	3.8230E+5	4.4992	9.6294	-134.0
400.44	3.8240E+5	4.4988	9.6181	-133.9
400.61	3.8250E+5	4.4925	9.6591	-133.2
400.81	3.8260E+5	4.5027	9.6789	-132.7
400.99	3.8270E+5	4.4901	9.7086	-132.3
401.19	3.8280E+5	4.4988	9.7425	-131.8
401.37	3.8290E+5	4.4922	9.7623	-132.3
401.56	3.8300E+5	4.5010	9.7878	-133.5
401.76	3.8310E+5	4.4918	9.8316	-132.5
401.94	3.8320E+5	4.5012	9.8557	-132.4
402.12	3.8330E+5	4.4908	9.8938	-133.1
402.31	3.8340E+5	4.4985	9.9094	-131.6
402.47	3.8350E+5	4.4947	9.9490	-131.2
402.67	3.8360E+5	4.4965	9.9561	-129.5
402.84	3.8370E+5	4.4988	9.9759	-129.4
403.04	3.8380E+5	4.4982	9.9999	-129.0
403.22	3.8390E+5	4.4932	10.0169	-130.7
403.39	3.8400E+5	4.4973	10.0635	-131.2
403.59	3.8410E+5	4.4958	10.0932	-128.8
403.77	3.8420E+5	4.4973	10.1201	-127.6
403.97	3.8430E+5	4.4925	10.1357	-127.7
404.13	3.8440E+5	4.4937	10.1880	-129.4
404.33	3.8450E+5	4.4934	10.2064	-127.2
404.52	3.8460E+5	4.4857	10.2332	-127.6
404.68	3.8470E+5	4.4928	10.2686	-127.0
404.88	3.8480E+5	4.4927	10.2686	-127.4
405.05	3.8490E+5	4.4934	10.3181	-127.6
405.25	3.8500E+5	4.4968	10.3464	-126.8
405.43	3.8510E+5	4.4951	10.3676	-125.9
405.61	3.8520E+5	4.4988	10.4185	-125.1
405.80	3.8530E+5	4.4901	10.4369	-124.6
405.98	3.8540E+5	4.4843	10.4454	-126.0
406.16	3.8550E+5	4.4867	10.5062	-125.8
406.35	3.8560E+5	4.4879	10.5118	-124.2
406.53	3.8570E+5	4.4881	10.5628	-125.5
406.73	3.8580E+5	4.4932	10.5769	-123.8
406.91	3.8590E+5	4.4890	10.6038	-125.3
407.11	3.8600E+5	4.4910	10.6264	-123.6
407.30	3.8610E+5	4.4913	10.6448	-123.7
407.46	3.8620E+5	4.4904	10.6816	-123.9
407.66	3.8630E+5	4.4872	10.7254	-123.4
407.84	3.8640E+5	4.4920	10.7325	-122.5
408.02	3.8650E+5	4.4896	10.7848	-122.2
408.21	3.8660E+5	4.4809	10.7961	-122.1
408.41	3.8670E+5	4.4930	10.8555	-121.0
408.62	3.8680E+5	4.4876	10.8767	-121.6
408.81	3.8690E+5	4.4881	10.9191	-120.4
409.01	3.8700E+5	4.4792	10.9474	-121.0
409.21	3.8710E+5	4.4930	10.9899	-119.8
409.41	3.8720E+5	4.4840	11.0125	-119.7
409.59	3.8730E+5	4.4823	11.0379	-120.2
409.79	3.8740E+5	4.4952	11.0705	-118.9
410.01	3.8750E+5	4.4855	11.0987	-117.6
410.19	3.8760E+5	4.4850	11.1030	-120.3
410.37	3.8770E+5	4.4842	11.1355	-118.6
410.57	3.8780E+5	4.4825	11.1794	-118.5
410.77	3.8790E+5	4.4860	11.1977	-117.5
410.99	3.8800E+5	4.4809	11.2402	-118.0
411.19	3.8810E+5	4.4825	11.2586	-115.5
411.37	3.8820E+5	4.4880	11.2925	-118.4
411.58	3.8830E+5	4.4848	11.3335	-116.3
411.77	3.8840E+5	4.4811	11.3604	-117.0
411.99	3.8850E+5	4.4881	11.3703	-115.4
412.17	3.8860E+5	4.4814	11.4184	-116.0
412.37	3.8870E+5	4.4848	11.4396	-116.6
412.57	3.8880E+5	4.4775	11.4551	-115.8
412.77	3.8890E+5	4.4865	11.5018	-112.7
412.98	3.8900E+5	4.4773	11.5400	-114.2
413.18	3.8910E+5	4.4822	11.5357	-114.1
413.35	3.8920E+5	4.4846	11.5612	-113.2
413.56	3.8930E+5	4.4757	11.5980	-113.6
413.76	3.8940E+5	4.4870	11.6093	-113.4
413.96	3.8950E+5	4.4766	11.6234	-111.0
414.16	3.8960E+5	4.4897	11.6489	-112.1
414.36	3.8970E+5	4.4709	11.6871	-111.9
414.58	3.8980E+5	4.4773	11.7111	-110.5
414.76	3.8990E+5	4.4840	11.7295	-111.5
414.98	3.9000E+5	4.4715	11.7564	-110.3
415.18	3.9010E+5	4.4845	11.8271	-111.9
415.38	3.9020E+5	4.4753	11.8327	-110.2
415.58	3.9030E+5	4.4771	11.8766	-109.9
415.76	3.9040E+5	4.4805	11.8794	-107.6
415.94	3.9050E+5	4.4853	11.8964	-109.0
416.14	3.9060E+5	4.4740	11.8568	-108.2
416.34	3.9070E+5	4.4778	11.8709	-108.1
416.54	3.9080E+5	4.4782	11.9077	-108.2
416.73	3.9090E+5	4.4825	11.9232	-107.1
416.91	3.9100E+5	4.4799	11.9077	-105.9
417.11	3.9110E+5	4.4799	11.8978	-107.2
417.27	3.9120E+5	4.4787	11.9232	-104.9
417.47	3.9130E+5	4.4801	11.9543	-105.9
417.65	3.9140E+5	4.4739	11.9642	-105.7
417.82	3.9150E+5	4.4782	12.0038	-103.2
418.02	3.9160E+5	4.4777	11.9939	-105.5
418.19	3.9170E+5	4.4737	12.0123	-104.4
418.39	3.9180E+5	4.4715	12.0166	-103.1
418.55	3.9190E+5	4.4720	12.0420	-103.9
418.72	3.9200E+5	4.4805	12.0491	-102.6
418.90	3.9210E+5	4.4808	12.0449	-104.3
419.07	3.9220E+5	4.4818	12.0647	-100.8
419.27	3.9230E+5	4.4744	12.0420	-101.4
419.45	3.9240E+5	4.4787	12.0774	-102.8
419.63	3.9250E+5	4.4819	12.0406	-103.6
419.83	3.9260E+5	4.4823	12.0618	-99.5
420.00	3.9270E+5	4.4706	12.0590	-101.6
420.18	3.9280E+5	4.4780	12.0661	-100.3
420.37	3.9290E+5	4.4743	12.0746	-100.5
420.53	3.9300E+5	4.4758	12.0816	-100.0
420.71	3.9310E+5	4.4732	12.0717	-97.2
420.88	3.9320E+5	4.4768	12.0845	-97.5
421.05	3.9330E+5	4.4710	12.0901	-98.1
421.23	3.9340E+5	4.4750	12.1043	-98.0
421.41	3.9350E+5	4.4749	12.0929	-98.3
421.60	3.9360E+5	4.4733	12.0958	-97.4
421.76	3.9370E+5	4.4749	12.0788	-96.9
421.95	3.9380E+5	4.4761	12.1071	-96.4
422.15	3.9390E+5	4.4734	12.0689	-97.8
422.33	3.9400E+5	4.4781	12.0958	-94.8
422.53	3.9410E+5	4.4843	12.0859	-97.7
422.73	3.9420E+5	4.4725	12.0731	-96.6
422.91	3.9430E+5	4.4727	12.0731	-93.9
423.09	3.9440E+5	4.4733	12.0675	-94.2
423.26	3.9450E+5	4.4726	12.0746	-92.5
423.43	3.9460E+5	4.4743	12.0760	-93.5
423.61	3.9470E+5	4.4744	12.0576	-92.1
423.79	3.9480E+5	4.4757	12.0548	-90.6
423.98	3.9490E+5	4.4767	12.0703	-90.7
424.16	3.9500E+5	4.4774	12.0576	-92.8
424.34	3.9510E+5	4.4768	12.0491	-89.0
424.52	3.9520E+5	4.4743	12.0505	-91.1
424.69	3.9530E+5	4.4770	12.0279	-90.1
424.89	3.9540E+5	4.4747	12.0392	-88.9
425.07	3.9550E+5	4.4777	12.0265	-90.4
425.25	3.9560E+5	4.4767	12.0123	-90.8
425.44	3.9570E+5	4.4746	11.9968	-89.2
425.62	3.9580E+5	4.4792	12.0123	-87.7
425.81	3.9590E+5	4.4763	11.9572	-88.3
426.00	3.9600E+5	4.4744	11.9770	-88.4
426.17	3.9610E+5	4.4797	11.9798	-86.8
426.37	3.9620E+5	4.4736	11.9473	-87.6
426.55	3.9630E+5	4.4751	11.9501	-86.8
426.72	3.9640E+5	4.4775	11.9246	-87.7
426.90	3.9650E+5	4.4828	11.9190	-85.7
427.09	3.9660E+5	4.4734	11.8907	-84.7
427.29	3.9670E+5	4.4791	11.8752	-84.4
427.45	3.9680E+5	4.4774	11.8610	-85.1
427.63	3.9690E+5	4.4709	11.8610	-84.9
427.82	3.9700E+5	4.4734	11.8539	-84.0
427.98	3.9710E+5	4.4732	11.8299	-84.3
428.17	3.9720E+5	4.4761	11.8285	-84.1
428.35	3.9730E+5	4.4756	11.7875	-83.1
428.53	3.9740E+5	4.4756	11.7677	-81.7
428.73	3.9750E+5	4.4780	11.7705	-81.9
428.90	3.9760E+5	4.4842	11.7408	-81.7
429.10	3.9770E+5	4.4719	11.7422	-82.0
429.30	3.9780E+5	4.4778	11.6856	-80.7
429.48	3.9790E+5	4.4750	11.6998	-79.5
429.66	3.9800E+5	4.4808	11.6630	-80.2
429.86	3.9810E+5	4.4723	11.6460	-78.9
430.03	3.9820E+5	4.4757	11.6319	-79.1
430.23	3.9830E+5	4.4778	11.6050	-81.5
430.41	3.9840E+5	4.4760	11.5966	-79.5
430.58	3.9850E+5	4.4811	11.5513	-81.0
430.78	3.9860E+5	4.4771	11.5343	-76.3
430.94	3.9870E+5	4.4795	11.5117	-76.6
431.13	3.9880E+5	4.4775	11.4735	-78.1
431.33	3.9890E+5	4.4757	11.4565	-78.5
431.51	3.9900E+5	4.4814	11.4339	-76.3
431.71	3.9910E+5	4.4805	11.3901	-76.2
431.89	3.9920E+5	4.4777	11.3618	-74.6
432.08	3.9930E+5	4.4808	11.3349	-76.4
432.27	3.9940E+5	4.4763	11.3279	-76.2
432.46	3.9950E+5	4.4795	11.2826	-75.7
432.64	3.9960E+5	4.4812	11.2642	-76.6
432.84	3.9970E+5	4.4801	11.2274	-75.7
433.02	3.9980E+5	4.4784	11.1822	-75.7
433.22	3.9990E+5	4.4846	11.1695	-74.5
433.40	4.0000E+5	4.4726	11.1256	-73.8
433.61	4.0010E+5	4.4870	11.0903	-73.5
433.82	4.0020E+5	4.4822	11.0577	-71.8
434.02	4.0030E+5	4.4797	11.0351	-72.8
434.20	4.0040E+5	4.4821	11.0040	-72.3
434.40	4.0050E+5	4.4801	10.9701	-73.0
434.59	4.0060E+5	4.4855	10.9248	-73.4
434.80	4.0070E+5	4.4799	10.8937	-73.9
435.00	4.0080E+5	4.4855	10.8527	-69.9
435.20	4.0090E+5	4.4756	10.8244	-71.1
435.42	4.0100E+5	4.4778	10.7848	-70.8
435.60	4.0110E+5	4.4770	10.7636	-69.4
435.77	4.0120E+5	4.4859	10.7268	-69.4
435.98	4.0130E+5	4.4729	10.6830	-70.8
436.18	4.0140E+5	4.4848	10.6561	-71.2
436.40	4.0150E+5	4.4747	10.6278	-69.9
436.60	4.0160E+5	4.4857	10.6052	-66.9
436.80	4.0170E+5	4.4828	10.5783	-67.8
437.01	4.0180E+5	4.4773	10.5331	-66.2
437.20	4.0190E+5	4.4874	10.5175	-69.0
437.36	4.0200E+5	4.4815	10.4892	-68.9
437.58	4.0210E+5	4.4877	10.4652	-68.0
437.78	4.0220E+5	4.4825	10.4270	-68.7
437.98	4.0230E+5	4.4787	10.4058	-67.5
438.14	4.0240E+5	4.4825	10.3690	-66.2
438.33	4.0250E+5	4.4843	10.3025	-64.5
438.54	4.0260E+5	4.4798	10.2856	-66.1
438.73	4.0270E+5	4.4826	10.2347	-66.9
438.91	4.0280E+5	4.4870	10.2290	-64.8
439.11	4.0290E+5	4.4831	10.2191	-66.3
439.31	4.0300E+5	4.4865	10.1908	-64.2
439.52	4.0310E+5	4.4866	10.1526	-65.8
439.69	4.0320E+5	4.4797	10.1328	-64.0
439.89	4.0330E+5	4.4928	10.0961	-63.9
440.11	4.0340E+5	4.4814	10.0593	-64.2
440.31	4.0350E+5	4.4874	10.0423	-61.3
440.51	4.0360E+5	4.4845	9.9971	-63.5
440.71	4.0370E+5	4.4859	9.9900	-63.3
440.87	4.0380E+5	4.4809	9.9391	-63.6
441.07	4.0390E+5	4.4887	9.9349	-62.0
441.27	4.0400E+5	4.4812	9.8797	-62.6
441.47	4.0410E+5	4.4931	9.8910	-61.0
441.69	4.0420E+5	4.4846	9.8656	-61.4
441.87	4.0430E+5	4.4843	9.8189	-61.7
442.05	4.0440E+5	4.4819	9.8033	-61.0
442.25	4.0450E+5	4.4890	9.7637	-60.5
442.45	4.0460E+5	4.4876	9.7411	-61.2
442.64	4.0470E+5	4.4872	9.7213	-62.4
442.82	4.0480E+5	4.4856	9.6760	-58.4
443.00	4.0490E+5	4.4869	9.6449	-59.6
443.20	4.0500E+5	4.4825	9.6068	-58.4
443.40	4.0510E+5	4.4925	9.5870	-59.4
443.60	4.0520E+5	4.4838	9.5601	-58.6
443.80	4.0530E+5	4.4889	9.5276	-58.2
443.98	4.0540E+5	4.4881	9.4880	-56.4
444.17	4.0550E+5	4.4908	9.4696	-56.5
444.35	4.0560E+5	4.4767	9.4300	-57.0
444.55	4.0570E+5	4.4927	9.4031	-58.6
444.73	4.0580E+5	4.4913	9.3663	-58.2
444.93	4.0590E+5	4.4836	9.3480	-59.0
445.12	4.0600E+5	4.4863	9.3183	-56.9
445.31	4.0610E+5	4.4887	9.2772	-55.6
445.50	4.0620E+5	4.4927	9.2546	-56.1
445.68	4.0630E+5	4.4924	9.2122	-55.9
445.88	4.0640E+5	4.4870	9.1839	-55.4
446.04	4.0650E+5	4.4924	9.1599	-55.8
446.23	4.0660E+5	4.4898	9.1203	-54.9
446.43	4.0670E+5	4.4896	9.0920	-54.8
446.61	4.0680E+5	4.4973	9.0708	-55.8
446.78	4.0690E+5	4.4937	9.0397	-53.9
446.98	4.0700E+5	4.4958	9.0241	-54.1
447.16	4.0710E+5	4.4887	8.9746	-53.4
447.36	4.0720E+5	4.4964	8.9506	-52.3
447.54	4.0730E+5	4.4906	8.9124	-55.0
447.73	4.0740E+5	4.4889	8.8926	-54.2
447.92	4.0750E+5	4.4945	8.8615	-52.9
448.11	4.0760E+5	4.4941	8.8247	-52.7
448.29	4.0770E+5	4.4978	8.7978	-52.2
448.49	4.0780E+5	4.4964	8.7653	-52.4
448.67	4.0790E+5	4.4937	8.7512	-52.2
448.86	4.0800E+5	4.4928	8.7002	-52.4
449.06	4.0810E+5	4.4932	8.6790	-52.5
449.24	4.0820E+5	4.5013	8.6663	-52.9
449.42	4.0830E+5	4.4966	8.6366	-52.4
449.62	4.0840E+5	4.4990	8.6168	-51.3
449.79	4.0850E+5	4.5005	8.5871	-50.6
449.99	4.0860E+5	4.4931	8.5602	-51.4
450.17	4.0870E+5	4.4976	8.5376	-50.7
450.35	4.0880E+5	4.4973	8.5079	-50.4
450.55	4.0890E+5	4.4962	8.4810	-50.5
450.74	4.0900E+5	4.4947	8.4570	-50.4
450.92	4.0910E+5	4.4961	8.4358	-50.1
451.12	4.0920E+5	4.4989	8.4202	-50.3
451.28	4.0930E+5	4.4965	8.3891	-49.7
451.47	4.0940E+5	4.4975	8.3424	-49.5
451.67	4.0950E+5	4.4904	8.3226	-48.1
451.85	4.0960E+5	4.4964	8.2972	-49.5
452.05	4.0970E+5	4.4966	8.2505	-48.6
452.23	4.0980E+5	4.5064	8.2307	-49.3
452.42	4.0990E+5	4.4945	8.2095	-48.3
452.62	4.1000E+5	4.4964	8.1742	-47.9
452.80	4.1010E+5	4.4973	8.1529	-49.2
452.98	4.1020E+5	4.4986	8.1190	-48.7
453.18	4.1030E+5	4.4971	8.0907	-49.7
453.36	4.1040E+5	4.4993	8.0610	-48.1
453.55	4.1050E+5	4.5029	8.0356	-47.7
453.75	4.1060E+5	4.4992	7.9931	-46.6
453.93	4.1070E+5	4.5021	7.9733	-47.3
454.10	4.1080E+5	4.4997	7.9309	-47.4
454.30	4.1090E+5	4.4983	7.8998	-46.6
454.48	4.1100E+5	4.4999	7.8659	-45.8
454.68	4.1110E+5	4.5024	7.8390	-47.2
454.86	4.1120E+5	4.5009	7.8050	-44.8
455.04	4.1130E+5	4.5023	7.7725	-47.7
455.24	4.1140E+5	4.5031	7.7513	-46.6
455.43	4.1150E+5	4.5057	7.7117	-44.8
455.61	4.1160E+5	4.5000	7.6820	-46.3
455.81	4.1170E+5	4.5029	7.6537	-44.0
455.99	4.1180E+5	4.4978	7.6254	-44.9
456.17	4.1190E+5	4.4999	7.5957	-44.2
456.37	4.1200E+5	4.5089	7.5646	-43.4
456.56	4.1210E+5	4.4988	7.5335	-43.7
456.74	4.1220E+5	4.5082	7.5137	-44.3
456.92	4.1230E+5	4.5010	7.4840	-45.3
457.11	4.1240E+5	4.4996	7.4543	-43.4
457.29	4.1250E+5	4.5044	7.4402	-44.0
457.49	4.1260E+5	4.5021	7.4020	-43.0
457.67	4.1270E+5	4.5037	7.3751	-43.3
457.87	4.1280E+5	4.5012	7.3652	-43.7
458.05	4.1290E+5	4.5026	7.3341	-42.1
458.24	4.1300E+5	4.5029	7.3072	-44.4
458.44	4.1310E+5	4.5046	7.2889	-44.2
458.60	4.1320E+5	4.5021	7.2563	-41.9
458.79	4.1330E+5	4.4990	7.2450	-42.1
458.98	4.1340E+5	4.5047	7.2181	-42.4
459.17	4.1350E+5	4.5012	7.1998	-43.6
459.33	4.1360E+5	4.5043	7.1715	-41.8
459.53	4.1370E+5	4.5031	7.1602	-42.3
459.72	4.1380E+5	4.5012	7.1276	-41.0
459.90	4.1390E+5	4.5030	7.0951	-41.6
460.10	4.1400E+5	4.4982	7.0810	-41.2
460.28	4.1410E+5	4.4976	7.0541	-40.9
460.46	4.1420E+5	4.5034	7.0371	-42.6
460.65	4.1430E+5	4.5031	7.0202	-40.3
460.83	4.1440E+5	4.5016	6.9905	-39.9
461.01	4.1450E+5	4.5081	6.9735	-40.6
461.20	4.1460E+5	4.4993	6.9325	-40.3
461.38	4.1470E+5	4.5058	6.9240	-39.7
461.55	4.1480E+5	4.5072	6.9098	-40.8
461.73	4.1490E+5	4.5007	6.8858	-39.8
461.89	4.1500E+5	4.5102	6.8717	-41.2
462.08	4.1510E+5	4.5061	6.8448	-39.5
462.26	4.1520E+5	4.5113	6.8179	-40.3
462.44	4.1530E+5	4.5061	6.7953	-40.5
462.64	4.1540E+5	4.5085	6.7783	-40.0
462.81	4.1550E+5	4.5078	6.7529	-38.6
462.99	4.1560E+5	4.5053	6.7317	-39.1
463.19	4.1570E+5	4.5101	6.7062	-38.6
463.37	4.1580E+5	4.5051	6.6878	-39.7
463.56	4.1590E+5	4.5105	6.6751	-39.7
463.74	4.1600E+5	4.5071	6.6539	-40.3
463.92	4.1610E+5	4.5075	6.6327	-39.6
464.11	4.1620E+5	4.5067	6.6143	-38.5
464.29	4.1630E+5	4.5087	6.5902	-38.4
464.47	4.1640E+5	4.5072	6.5817	-38.6
464.64	4.1650E+5	4.5048	6.5690	-39.1
464.84	4.1660E+5	4.5065	6.5379	-37.3
465.02	4.1670E+5	4.5048	6.5308	-39.2
465.19	4.1680E+5	4.5067	6.4898	-38.7
465.39	4.1690E+5	4.5063	6.4785	-37.7
465.56	4.1700E+5	4.5115	6.4771	-38.0
465.74	4.1710E+5	4.5099	6.4474	-37.3
465.95	4.1720E+5	4.5043	6.4403	-38.9
466.12	4.1730E+5	4.5053	6.4050	-36.6
466.32	4.1740E+5	4.5061	6.3880	-37.1
466.49	4.1750E+5	4.5116	6.3696	-36.3
466.68	4.1760E+5	4.5043	6.3541	-38.1
466.88	4.1770E+5	4.5053	6.3300	-36.8
467.07	4.1780E+5	4.5031	6.3215	-38.6
467.25	4.1790E+5	4.5071	6.2947	-36.7
467.43	4.1800E+5	4.5088	6.2706	-37.6
467.62	4.1810E+5	4.5143	6.2579	-35.4
467.82	4.1820E+5	4.5113	6.2409	-39.2
468.01	4.1830E+5	4.5072	6.2183	-36.6
468.20	4.1840E+5	4.5116	6.1999	-35.6
468.40	4.1850E+5	4.5142	6.1844	-36.3
468.58	4.1860E+5	4.5099	6.1589	-39.2
468.78	4.1870E+5	4.5132	6.1405	-35.1
468.98	4.1880E+5	4.5113	6.1193	-37.2
469.20	4.1890E+5	4.5089	6.1023	-36.6
469.36	4.1900E+5	4.5091	6.0797	-34.2
469.55	4.1910E+5	4.5137	6.0627	-35.7
469.76	4.1920E+5	4.5099	6.0486	-35.0
469.94	4.1930E+5	4.5091	6.0288	-36.0
470.13	4.1940E+5	4.5091	6.0147	-34.7
470.31	4.1950E+5	4.5135	5.9977	-34.6
470.51	4.1960E+5	4.5113	5.9751	-34.6
470.71	4.1970E+5	4.5108	5.9538	-34.4
470.91	4.1980E+5	4.5082	5.9284	-34.8
471.08	4.1990E+5	4.5089	5.8987	-33.9
471.26	4.2000E+5	4.5065	5.8789	-33.8
471.46	4.2010E+5	4.5088	5.8704	-35.6
471.62	4.2020E+5	4.5084	5.8492	-33.7
471.79	4.2030E+5	4.5150	5.8322	-36.7
472.01	4.2040E+5	4.5128	5.8124	-34.4
472.19	4.2050E+5	4.5142	5.7940	-36.9
472.36	4.2060E+5	4.5099	5.7813	-36.2
472.57	4.2070E+5	4.5106	5.7643	-36.7
472.74	4.2080E+5	4.5123	5.7474	-34.0
472.94	4.2090E+5	4.5085	5.7304	-35.9
473.14	4.2100E+5	4.5095	5.7148	-36.1
473.32	4.2110E+5	4.5136	5.6936	-34.8
473.52	4.2120E+5	4.5128	5.6781	-33.6
473.70	4.2130E+5	4.5099	5.6597	-32.6
473.90	4.2140E+5	4.5054	5.6413	-31.8
474.10	4.2150E+5	4.5156	5.6215	-33.8
474.29	4.2160E+5	4.5170	5.6187	-33.7
474.45	4.2170E+5	4.5128	5.5847	-32.3
474.65	4.2180E+5	4.5099	5.5720	-33.8
474.83	4.2190E+5	4.5115	5.5607	-33.9
475.02	4.2200E+5	4.5156	5.5324	-33.0
475.22	4.2210E+5	4.5184	5.5310	-34.2
475.38	4.2220E+5	4.5085	5.5069	-33.1
475.58	4.2230E+5	4.5167	5.4942	-32.1
475.80	4.2240E+5	4.5142	5.4702	-33.3
475.98	4.2250E+5	4.5113	5.4603	-34.7
476.17	4.2260E+5	4.5084	5.4447	-33.4
476.36	4.2270E+5	4.5119	5.4207	-34.7
476.55	4.2280E+5	4.5170	5.4051	-31.0
476.73	4.2290E+5	4.5156	5.3825	-33.0
476.93	4.2300E+5	4.5142	5.3768	-35.2
477.10	4.2310E+5	4.5170	5.3570	-33.1
477.28	4.2320E+5	4.5128	5.3401	-33.6
477.46	4.2330E+5	4.5128	5.3288	-31.4
477.64	4.2340E+5	4.5142	5.3146	-33.7
477.81	4.2350E+5	4.5156	5.2962	-30.7
478.01	4.2360E+5	4.5156	5.2849	-34.1
478.18	4.2370E+5	4.5128	5.2637	-32.7
478.36	4.2380E+5	4.5170	5.2623	-31.5
478.54	4.2390E+5	4.5156	5.2481	-31.0
478.71	4.2400E+5	4.5184	5.2298	-31.4
478.89	4.2410E+5	4.5142	5.2085	-31.4
479.09	4.2420E+5	4.5170	5.1972	-33.0
479.26	4.2430E+5	4.5113	5.1902	-31.8
479.46	4.2440E+5	4.5156	5.1675	-30.3
479.66	4.2450E+5	4.5184	5.1477	-30.2
479.84	4.2460E+5	4.5142	5.1492	-33.6
480.01	4.2470E+5	4.5113	5.1251	-31.6
480.22	4.2480E+5	4.5132	5.1180	-28.7
480.40	4.2490E+5	4.5156	5.1011	-31.5
480.57	4.2500E+5	4.5128	5.0912	-29.9
480.74	4.2510E+5	4.5099	5.0841	-32.8
480.90	4.2520E+5	4.5204	5.0685	-31.5
481.09	4.2530E+5	4.5184	5.0487	-31.9
481.27	4.2540E+5	4.5198	5.0388	-31.0
481.42	4.2550E+5	4.5156	5.0190	-30.8
481.59	4.2560E+5	4.5156	5.0205	-31.8
481.77	4.2570E+5	4.5142	5.0035	-30.8
481.94	4.2580E+5	4.5198	4.9893	-31.8
482.12	4.2590E+5	4.5113	4.9752	-31.3
482.32	4.2600E+5	4.5142	4.9625	-30.6
482.52	4.2610E+5	4.5156	4.9483	-31.7
482.68	4.2620E+5	4.5198	4.9441	-32.3
482.87	4.2630E+5	4.5099	4.9172	-28.9
483.07	4.2640E+5	4.5143	4.9200	-30.9
483.25	4.2650E+5	4.5142	4.9017	-30.2
483.45	4.2660E+5	4.5156	4.8988	-29.8
483.62	4.2670E+5	4.5170	4.8762	-29.7
483.80	4.2680E+5	4.5212	4.8592	-31.0
483.98	4.2690E+5	4.5170	4.8578	-29.3
484.15	4.2700E+5	4.5170	4.8423	-30.6
484.33	4.2710E+5	4.5128	4.8239	-30.1
484.51	4.2720E+5	4.5184	4.8225	-30.4
484.70	4.2730E+5	4.5184	4.8225	-29.4
484.86	4.2740E+5	4.5156	4.7871	-30.4
485.05	4.2750E+5	4.5156	4.7744	-30.0
485.23	4.2760E+5	4.5142	4.7659	-29.3
485.41	4.2770E+5	4.5198	4.7588	-28.4
485.58	4.2780E+5	4.5156	4.7419	-30.4
485.76	4.2790E+5	4.5085	4.7305	-28.3
485.96	4.2800E+5	4.5170	4.7235	-30.4
486.14	4.2810E+5	4.5198	4.7136	-29.2
486.33	4.2820E+5	4.5212	4.6966	-27.3
486.51	4.2830E+5	4.5184	4.6796	-29.2
486.69	4.2840E+5	4.5184	4.6726	-28.0
486.87	4.2850E+5	4.5156	4.6627	-29.5
487.04	4.2860E+5	4.5198	4.6429	-28.8
487.22	4.2870E+5	4.5184	4.6443	-28.4
487.41	4.2880E+5	4.5198	4.6188	-27.3
487.59	4.2890E+5	4.5184	4.6174	-28.4
487.76	4.2900E+5	4.5142	4.6061	-28.0
487.94	4.2910E+5	4.5184	4.5863	-26.7
488.12	4.2920E+5	4.5212	4.5835	-27.1
488.29	4.2930E+5	4.5198	4.5651	-26.9
488.49	4.2940E+5	4.5170	4.5623	-27.8
488.65	4.2950E+5	4.5170	4.5509	-28.4
488.82	4.2960E+5	4.5212	4.5368	-25.9
489.02	4.2970E+5	4.5212	4.5241	-28.6
489.19	4.2980E+5	4.5184	4.5014	-28.6
489.37	4.2990E+5	4.5198	4.4911	-28.1
489.55	4.3000E+5	4.5198	4.4908	-28.3
489.72	4.3010E+5	4.5198	4.4816	-27.5
489.89	4.3020E+5	4.5198	4.4732	-29.0
490.07	4.3030E+5	4.5198	4.4545	-28.0
490.25	4.3040E+5	4.5198	4.4436	-27.0
490.42	4.3050E+5	4.5184	4.4275	-28.0
490.60	4.3060E+5	4.5227	4.4340	-26.0
490.77	4.3070E+5	4.5227	4.4106	-26.8
490.95	4.3080E+5	4.5212	4.4050	-26.3
491.13	4.3090E+5	4.5170	4.3951	-28.0
491.32	4.3100E+5	4.5227	4.3906	-26.3
491.48	4.3110E+5	4.5227	4.3756	-27.5
491.67	4.3120E+5	4.5184	4.3650	-26.0
491.85	4.3130E+5	4.5170	4.3514	-27.4
492.01	4.3140E+5	4.5184	4.3554	-27.0
492.20	4.3150E+5	4.5184	4.3336	-26.1
492.38	4.3160E+5	4.5269	4.3276	-27.5
492.55	4.3170E+5	4.5255	4.3234	-26.7
492.69	4.3180E+5	4.5170	4.3098	-26.5
492.90	4.3190E+5	4.5184	4.3037	-26.4
493.06	4.3200E+5	4.5212	4.2937	-27.4
493.23	4.3210E+5	4.5212	4.2862	-26.2
493.41	4.3220E+5	4.5212	4.2743	-23.6
493.59	4.3230E+5	4.5184	4.2740	-25.9
493.76	4.3240E+5	4.5241	4.2593	-27.1
493.94	4.3250E+5	4.5184	4.2466	-24.9
494.13	4.3260E+5	4.5198	4.2340	-27.2
494.29	4.3270E+5	4.5227	4.2301	-25.6
494.48	4.3280E+5	4.5227	4.2197	-24.9
494.66	4.3290E+5	4.5198	4.2107	-28.1
494.82	4.3300E+5	4.5227	4.2073	-26.3
495.01	4.3310E+5	4.5198	4.1916	-26.8
495.19	4.3320E+5	4.5198	4.1791	-28.1
495.36	4.3330E+5	4.5241	4.1794	-26.7
495.54	4.3340E+5	4.5212	4.1617	-24.9
495.72	4.3350E+5	4.5156	4.1633	-25.2
495.89	4.3360E+5	4.5212	4.1442	-26.4
496.07	4.3370E+5	4.5170	4.1325	-27.3
496.25	4.3380E+5	4.5227	4.1271	-28.1
496.42	4.3390E+5	4.5198	4.1250	-26.0
496.61	4.3400E+5	4.5212	4.1128	-24.3
496.79	4.3410E+5	4.5227	4.0874	-25.4
496.95	4.3420E+5	4.5241	4.0811	-24.3
497.12	4.3430E+5	4.5198	4.0702	-24.9
497.30	4.3440E+5	4.5212	4.0650	-24.9
497.47	4.3450E+5	4.5212	4.0530	-25.2
497.65	4.3460E+5	4.5198	4.0374	-25.8
497.84	4.3470E+5	4.5255	4.0270	-26.0
498.02	4.3480E+5	4.5212	4.0101	-25.6
498.18	4.3490E+5	4.5212	4.0065	-23.7
498.35	4.3500E+5	4.5212	3.9997	-23.5
498.53	4.3510E+5	4.5198	3.9845	-25.4
498.70	4.3520E+5	4.5241	3.9755	-24.9
498.88	4.3530E+5	4.5241	3.9749	-26.3
499.05	4.3540E+5	4.5255	3.9561	-25.0
499.22	4.3550E+5	4.5227	3.9437	-24.1
499.42	4.3560E+5	4.5241	3.9341	-25.6
499.58	4.3570E+5	4.5269	3.9338	-24.9
499.75	4.3580E+5	4.5326	3.9041	-23.3
499.95	4.3590E+5	4.5227	3.8932	-25.3
500.11	4.3600E+5	4.5142	3.8860	-24.9
500.30	4.3610E+5	4.5198	3.8737	-24.4
500.46	4.3620E+5	4.5241	3.8747	-25.1
500.65	4.3630E+5	4.5241	3.8612	-24.3
500.81	4.3640E+5	4.5269	3.8567	-23.5
501.00	4.3650E+5	4.5255	3.8427	-25.0
501.18	4.3660E+5	4.5198	3.8308	-23.6
501.36	4.3670E+5	4.5255	3.8226	-25.2
501.53	4.3680E+5	4.5227	3.8134	-24.6
501.71	4.3690E+5	4.5326	3.8103	-24.0
501.88	4.3700E+5	4.5297	3.8025	-23.8
502.06	4.3710E+5	4.5283	3.7890	-23.1
502.24	4.3720E+5	4.5227	3.7922	-24.1
502.41	4.3730E+5	4.5297	3.7757	-22.8
502.59	4.3740E+5	4.5311	3.7673	-23.9
502.77	4.3750E+5	4.5269	3.7610	-25.3
502.94	4.3760E+5	4.5198	3.7447	-22.3
503.12	4.3770E+5	4.5297	3.7407	-25.1
503.31	4.3780E+5	4.5212	3.7349	-25.7
503.47	4.3790E+5	4.5212	3.7266	-23.5
503.64	4.3800E+5	4.5198	3.7202	-24.2
503.79	4.3810E+5	4.5297	3.7059	-23.9
503.99	4.3820E+5	4.5198	3.7068	-24.8
504.15	4.3830E+5	4.5227	3.6946	-22.8
504.30	4.3840E+5	4.5227	3.6835	-23.7
504.50	4.3850E+5	4.5241	3.6856	-25.3
504.67	4.3860E+5	4.5255	3.6661	-24.0
504.84	4.3870E+5	4.5283	3.6676	-22.1
505.02	4.3880E+5	4.5297	3.6608	-22.6
505.20	4.3890E+5	4.5227	3.6581	-24.7
505.37	4.3900E+5	4.5311	3.6443	-23.6
505.55	4.3910E+5	4.5269	3.6306	-21.6
505.74	4.3920E+5	4.5241	3.6226	-23.4
505.90	4.3930E+5	4.5255	3.6214	-24.1
506.08	4.3940E+5	4.5311	3.6123	-21.8
506.23	4.3950E+5	4.5297	3.6086	-23.9
506.40	4.3960E+5	4.5227	3.5951	-24.2
506.58	4.3970E+5	4.5269	3.5922	-21.7
506.77	4.3980E+5	4.5212	3.5713	-23.9
506.95	4.3990E+5	4.5227	3.5778	-23.4
507.12	4.4000E+5	4.5241	3.5659	-22.0
507.30	4.4010E+5	4.5255	3.5597	-23.5
507.47	4.4020E+5	4.5241	3.5538	-24.6
507.63	4.4030E+5	4.5255	3.5416	-23.5
507.83	4.4040E+5	4.5255	3.5425	-21.3
508.00	4.4050E+5	4.5311	3.5320	-23.7
508.16	4.4060E+5	4.5241	3.5255	-23.0
508.35	4.4070E+5	4.5227	3.5114	-24.5
508.53	4.4080E+5	4.5227	3.5156	-24.1
508.70	4.4090E+5	4.5269	3.5084	-19.7
508.86	4.4100E+5	4.5227	3.5026	-24.2
509.05	4.4110E+5	4.5283	3.4875	-23.2
509.23	4.4120E+5	4.5255	3.4872	-22.1
509.39	4.4130E+5	4.5311	3.4798	-22.7
509.58	4.4140E+5	4.5241	3.4800	-24.3
509.74	4.4150E+5	4.5241	3.4644	-23.3
509.93	4.4160E+5	4.5184	3.4596	-20.7
510.11	4.4170E+5	4.5311	3.4558	-22.5
510.27	4.4180E+5	4.5241	3.4480	-21.2
510.42	4.4190E+5	4.5184	3.4317	-21.0
510.62	4.4200E+5	4.5198	3.4302	-22.6
510.79	4.4210E+5	4.5212	3.4272	-22.3
510.96	4.4220E+5	4.5283	3.4160	-22.6
511.12	4.4230E+5	4.5227	3.4118	-23.0
511.31	4.4240E+5	4.5241	3.3978	-21.2
511.49	4.4250E+5	4.5184	3.4039	-22.2
511.65	4.4260E+5	4.5255	3.4008	-22.3
511.84	4.4270E+5	4.5283	3.3945	-22.5
512.00	4.4280E+5	4.5326	3.3890	-23.4
512.17	4.4290E+5	4.5255	3.3787	-21.7
512.37	4.4300E+5	4.5241	3.3743	-22.6
512.54	4.4310E+5	4.5227	3.3629	-22.7
512.70	4.4320E+5	4.5227	3.3637	-22.4
512.89	4.4330E+5	4.5255	3.3525	-21.1
513.05	4.4340E+5	4.5297	3.3576	-23.0
513.22	4.4350E+5	4.5227	3.3450	-21.2
513.40	4.4360E+5	4.5241	3.3394	-23.0
513.59	4.4370E+5	4.5227	3.3341	-21.5
513.75	4.4380E+5	4.5241	3.3299	-21.6
513.92	4.4390E+5	4.5241	3.3209	-19.7
514.12	4.4400E+5	4.5255	3.3131	-22.9
514.28	4.4410E+5	4.5283	3.3067	-22.1
514.45	4.4420E+5	4.5170	3.2927	-20.7
514.65	4.4430E+5	4.5227	3.2859	-22.8
514.82	4.4440E+5	4.5326	3.2899	-21.2
514.98	4.4450E+5	4.5241	3.2810	-22.7
515.15	4.4460E+5	4.5198	3.2845	-21.1
515.33	4.4470E+5	4.5255	3.2632	-21.2
515.51	4.4480E+5	4.5269	3.2721	-21.1
515.70	4.4490E+5	4.5368	3.2548	-20.4
515.90	4.4500E+5	4.5198	3.2484	-21.8
516.06	4.4510E+5	4.5198	3.2545	-23.6
516.23	4.4520E+5	4.5255	3.2422	-23.6
516.41	4.4530E+5	4.5283	3.2387	-21.2
516.58	4.4540E+5	4.5241	3.2282	-20.8
516.76	4.4550E+5	4.5241	3.2210	-20.2
516.95	4.4560E+5	4.5170	3.2185	-22.7
517.11	4.4570E+5	4.5241	3.2137	-21.3
517.28	4.4580E+5	4.5241	3.2059	-21.8
517.46	4.4590E+5	4.5227	3.1923	-21.0
517.64	4.4600E+5	4.5255	3.1933	-21.6
517.81	4.4610E+5	4.5241	3.1895	-21.5
517.98	4.4620E+5	4.5241	3.1797	-20.6
518.17	4.4630E+5	4.5241	3.1712	-20.9
518.34	4.4640E+5	4.5354	3.1734	-22.9
518.51	4.4650E+5	4.5227	3.1571	-20.6
518.69	4.4660E+5	4.5283	3.1543	-21.4
518.86	4.4670E+5	4.5269	3.1489	-21.8
519.04	4.4680E+5	4.5255	3.1421	-22.8
519.21	4.4690E+5	4.5297	3.1553	-21.0
519.41	4.4700E+5	4.5283	3.1357	-21.3
519.59	4.4710E+5	4.5241	3.1217	-18.7
519.77	4.4720E+5	4.5255	3.1271	-20.7
519.97	4.4730E+5	4.5283	3.1152	-20.5
520.15	4.4740E+5	4.5269	3.1107	-19.4
520.32	4.4750E+5	4.5311	3.1045	-20.2
520.49	4.4760E+5	4.5269	3.0960	-20.1
520.67	4.4770E+5	4.5241	3.0885	-21.0
520.84	4.4780E+5	4.5255	3.0901	-19.4
521.00	4.4790E+5	4.5297	3.0860	-21.5
521.18	4.4800E+5	4.5227	3.0809	-21.1
521.35	4.4810E+5	4.5227	3.0785	-21.2
521.52	4.4820E+5	4.5297	3.0618	-20.0
521.72	4.4830E+5	4.5198	3.0592	-20.8
521.88	4.4840E+5	4.5269	3.0561	-20.2
522.05	4.4850E+5	4.5297	3.0519	-21.6
522.23	4.4860E+5	4.5297	3.0462	-19.7
522.38	4.4870E+5	4.5212	3.0423	-20.4
522.55	4.4880E+5	4.5269	3.0322	-18.7
522.73	4.4890E+5	4.5269	3.0314	-19.6
522.91	4.4900E+5	4.5227	3.0233	-21.8
523.08	4.4910E+5	4.5311	3.0360	-20.8
523.25	4.4920E+5	4.5255	3.0256	-21.1
523.43	4.4930E+5	4.5269	3.0099	-19.0
523.61	4.4940E+5	4.5283	3.0104	-19.0
523.78	4.4950E+5	4.5283	3.0065	-20.5
523.95	4.4960E+5	4.5241	2.9984	-21.3
524.13	4.4970E+5	4.5269	2.9956	-21.2
524.29	4.4980E+5	4.5241	2.9891	-20.1
524.46	4.4990E+5	4.5283	2.9853	-20.3
524.64	4.5000E+5	4.5269	2.9806	-19.4
524.83	4.5010E+5	4.5227	2.9803	-20.4
524.99	4.5020E+5	4.5283	2.9662	-19.5
525.18	4.5030E+5	4.5283	2.9672	-20.9
525.34	4.5040E+5	4.5283	2.9607	-20.0
525.51	4.5050E+5	4.5255	2.9539	-20.2
525.68	4.5060E+5	4.5297	2.9523	-19.4
525.86	4.5070E+5	4.5297	2.9539	-19.8
526.03	4.5080E+5	4.5382	2.9447	-20.0
526.19	4.5090E+5	4.5340	2.9428	-18.7
526.37	4.5100E+5	4.5283	2.9346	-19.3
526.52	4.5110E+5	4.5340	2.9338	-19.7
526.69	4.5120E+5	4.5311	2.9199	-18.8
526.89	4.5130E+5	4.5255	2.9212	-20.6
527.06	4.5140E+5	4.5354	2.9138	-20.3
527.22	4.5150E+5	4.5326	2.9229	-22.1
527.37	4.5160E+5	4.5198	2.9014	-20.3
527.56	4.5170E+5	4.5255	2.9006	-20.3
527.72	4.5180E+5	4.5255	2.8981	-19.8
527.90	4.5190E+5	4.5283	2.8901	-20.9
528.09	4.5200E+5	4.5269	2.8894	-20.0
528.25	4.5210E+5	4.5241	2.8706	-19.0
528.44	4.5220E+5	4.5297	2.8684	-18.5
528.60	4.5230E+5	4.5297	2.8607	-20.4
528.77	4.5240E+5	4.5297	2.8574	-18.8
528.93	4.5250E+5	4.5311	2.8536	-19.0
529.09	4.5260E+5	4.5283	2.8528	-19.3
529.27	4.5270E+5	4.5241	2.8392	-17.8
529.45	4.5280E+5	4.5311	2.8351	-18.7
529.62	4.5290E+5	4.5311	2.8346	-21.0
529.77	4.5300E+5	4.5283	2.8293	-20.4
529.95	4.5310E+5	4.5269	2.8263	-20.0
530.13	4.5320E+5	4.5326	2.8190	-20.9
530.32	4.5330E+5	4.5283	2.8110	-17.5
530.52	4.5340E+5	4.5283	2.8081	-19.0
530.70	4.5350E+5	4.5326	2.8061	-19.3
530.88	4.5360E+5	4.5269	2.7987	-18.6
531.08	4.5370E+5	4.5340	2.7915	-19.7
531.26	4.5380E+5	4.5283	2.7849	-18.2
531.45	4.5390E+5	4.5283	2.7847	-19.5
531.61	4.5400E+5	4.5255	2.7731	-20.0
531.81	4.5410E+5	4.5241	2.7651	-21.0
532.00	4.5420E+5	4.5269	2.7646	-20.4
532.18	4.5430E+5	4.5241	2.7547	-19.3
532.38	4.5440E+5	4.5297	2.7583	-20.3
532.56	4.5450E+5	4.5297	2.7535	-19.4
532.74	4.5460E+5	4.5269	2.7434	-18.6
532.93	4.5470E+5	4.5311	2.7355	-17.8
533.13	4.5480E+5	4.5326	2.7273	-18.0
533.31	4.5490E+5	4.5255	2.7208	-18.3
533.48	4.5500E+5	4.5340	2.7191	-18.6
533.68	4.5510E+5	4.5326	2.7178	-19.2
533.84	4.5520E+5	4.5255	2.7068	-18.8
534.02	4.5530E+5	4.5297	2.7036	-18.9
534.21	4.5540E+5	4.5283	2.6953	-19.0
534.41	4.5550E+5	4.5227	2.6876	-18.4
534.59	4.5560E+5	4.5311	2.6862	-20.7
534.76	4.5570E+5	4.5283	2.6842	-20.5
534.96	4.5580E+5	4.5255	2.6746	-17.5
535.14	4.5590E+5	4.5283	2.6760	-19.0
535.31	4.5600E+5	4.5269	2.6686	-18.9
535.49	4.5610E+5	4.5255	2.6644	-18.1
535.69	4.5620E+5	4.5269	2.6542	-19.0
535.87	4.5630E+5	4.5340	2.6545	-18.5
536.04	4.5640E+5	4.5297	2.6545	-18.7
536.22	4.5650E+5	4.5283	2.6426	-18.2
536.40	4.5660E+5	4.5311	2.6406	-18.3
536.57	4.5670E+5	4.5269	2.6389	-19.8
536.77	4.5680E+5	4.5283	2.6358	-17.9
536.95	4.5690E+5	4.5326	2.6323	-18.4
537.13	4.5700E+5	4.5227	2.6258	-17.6
537.32	4.5710E+5	4.5297	2.6180	-18.3
537.52	4.5720E+5	4.5297	2.6201	-18.2
537.68	4.5730E+5	4.5255	2.6119	-17.6
537.85	4.5740E+5	4.5255	2.6050	-18.4
538.05	4.5750E+5	4.5326	2.6051	-19.2
538.22	4.5760E+5	4.5311	2.6044	-19.4
538.38	4.5770E+5	4.5340	2.6034	-18.7
538.57	4.5780E+5	4.5326	2.5965	-17.0
538.76	4.5790E+5	4.5311	2.5948	-19.3
538.93	4.5800E+5	4.5255	2.5794	-19.1
539.12	4.5810E+5	4.5241	2.5824	-18.3
539.32	4.5820E+5	4.5297	2.5736	-18.0
539.50	4.5830E+5	4.5269	2.5838	-17.8
539.68	4.5840E+5	4.5283	2.5739	-17.5
539.86	4.5850E+5	4.5311	2.5617	-15.8
540.06	4.5860E+5	4.5311	2.5641	-19.8
540.24	4.5870E+5	4.5297	2.5559	-18.3
540.44	4.5880E+5	4.5297	2.5538	-19.9
540.63	4.5890E+5	4.5297	2.5560	-19.6
540.81	4.5900E+5	4.5354	2.5476	-16.9
540.98	4.5910E+5	4.5227	2.5391	-18.0
541.16	4.5920E+5	4.5326	2.5347	-17.3
541.36	4.5930E+5	4.5269	2.5361	-17.2
541.54	4.5940E+5	4.5269	2.5312	-16.1
541.73	4.5950E+5	4.5354	2.5289	-19.4
541.92	4.5960E+5	4.5326	2.5261	-17.5
542.11	4.5970E+5	4.5283	2.5133	-18.0
542.29	4.5980E+5	4.5326	2.5210	-17.4
542.47	4.5990E+5	4.5311	2.5080	-17.0
542.67	4.6000E+5	4.5297	2.5094	-18.8
542.84	4.6010E+5	4.5297	2.5019	-17.6
543.01	4.6020E+5	4.5269	2.5000	-17.9
543.21	4.6030E+5	4.5311	2.4931	-18.1
543.39	4.6040E+5	4.5311	2.5030	-17.0
543.57	4.6050E+5	4.5297	2.4916	-16.1
543.75	4.6060E+5	4.5297	2.4835	-17.3
543.96	4.6070E+5	4.5255	2.4749	-19.0
544.14	4.6080E+5	4.5297	2.4835	-16.6
544.32	4.6090E+5	4.5297	2.4719	-17.3
544.50	4.6100E+5	4.5283	2.4781	-17.7
544.70	4.6110E+5	4.5269	2.4709	-18.5
544.88	4.6120E+5	4.5311	2.4654	-17.7
545.07	4.6130E+5	4.5340	2.4631	-18.5
545.27	4.6140E+5	4.5311	2.4609	-19.2
545.45	4.6150E+5	4.5297	2.4582	-17.6
545.63	4.6160E+5	4.5255	2.4528	-17.1
545.82	4.6170E+5	4.5311	2.4449	-16.9
546.02	4.6180E+5	4.5311	2.4489	-18.3
546.20	4.6190E+5	4.5283	2.4411	-18.9
546.38	4.6200E+5	4.5311	2.4339	-18.3
546.58	4.6210E+5	4.5311	2.4363	-17.6
546.76	4.6220E+5	4.5297	2.4296	-17.1
546.95	4.6230E+5	4.5326	2.4274	-18.4
547.13	4.6240E+5	4.5326	2.4288	-17.0
547.33	4.6250E+5	4.5283	2.4193	-16.9
547.51	4.6260E+5	4.5311	2.4200	-16.5
547.70	4.6270E+5	4.5269	2.4136	-17.0
547.89	4.6280E+5	4.5255	2.4100	-16.8
548.08	4.6290E+5	4.5311	2.4025	-18.3
548.26	4.6300E+5	4.5326	2.4087	-17.0
548.45	4.6310E+5	4.5354	2.4030	-16.5
548.64	4.6320E+5	4.5311	2.3895	-16.9
548.83	4.6330E+5	4.5340	2.3938	-16.7
549.01	4.6340E+5	4.5269	2.3872	-17.7
549.21	4.6350E+5	4.5297	2.3793	-16.6
549.39	4.6360E+5	4.5340	2.3856	-16.1
549.57	4.6370E+5	4.5283	2.3747	-16.7
549.74	4.6380E+5	4.5283	2.3801	-15.6
549.94	4.6390E+5	4.5269	2.3732	-16.5
550.12	4.6400E+5	4.5269	2.3689	-17.4
550.31	4.6410E+5	4.5297	2.3694	-15.9
550.47	4.6420E+5	4.5368	2.3602	-17.6
550.67	4.6430E+5	4.5241	2.3605	-17.9
550.86	4.6440E+5	4.5354	2.3588	-16.2
551.02	4.6450E+5	4.5311	2.3542	-17.5
551.22	4.6460E+5	4.5255	2.3496	-16.6
551.40	4.6470E+5	4.5311	2.3479	-16.8
551.59	4.6480E+5	4.5368	2.3525	-16.4
551.77	4.6490E+5	4.5269	2.3401	-17.7
551.97	4.6500E+5	4.5340	2.3380	-18.9
552.14	4.6510E+5	4.5297	2.3402	-16.3
552.30	4.6520E+5	4.5255	2.3350	-17.5
552.50	4.6530E+5	4.5340	2.3337	-15.9
552.68	4.6540E+5	4.5269	2.3227	-17.8
552.87	4.6550E+5	4.5297	2.3216	-18.1
553.03	4.6560E+5	4.5326	2.3216	-16.3
553.22	4.6570E+5	4.5311	2.3155	-17.6
553.40	4.6580E+5	4.5297	2.3103	-17.1
553.58	4.6590E+5	4.5297	2.3077	-15.9
553.77	4.6600E+5	4.5326	2.3122	-16.9
553.97	4.6610E+5	4.5340	2.3118	-17.2
554.13	4.6620E+5	4.5241	2.3011	-16.3
554.31	4.6630E+5	4.5283	2.2965	-17.4
554.51	4.6640E+5	4.5255	2.2862	-17.0
554.70	4.6650E+5	4.5340	2.2930	-16.3
554.88	4.6660E+5	4.5340	2.2903	-16.8
555.06	4.6670E+5	4.5340	2.2827	-17.7
555.26	4.6680E+5	4.5340	2.2830	-16.6
555.43	4.6690E+5	4.5297	2.2810	-18.3
555.61	4.6700E+5	4.5283	2.2794	-16.4
555.78	4.6710E+5	4.5269	2.2796	-16.7
555.95	4.6720E+5	4.5311	2.2759	-16.3
556.13	4.6730E+5	4.5269	2.2664	-14.8
556.31	4.6740E+5	4.5311	2.2670	-15.9
556.49	4.6750E+5	4.5283	2.2678	-18.4
556.68	4.6760E+5	4.5340	2.2687	-14.7
556.84	4.6770E+5	4.5283	2.2588	-17.2
557.03	4.6780E+5	4.5297	2.2601	-16.8
557.19	4.6790E+5	4.5269	2.2554	-16.6
557.38	4.6800E+5	4.5340	2.2459	-17.5
557.56	4.6810E+5	4.5340	2.2472	-16.2
557.73	4.6820E+5	4.5255	2.2445	-16.4
557.91	4.6830E+5	4.5297	2.2434	-15.4
558.09	4.6840E+5	4.5326	2.2306	-16.2
558.27	4.6850E+5	4.5269	2.2326	-16.5
558.46	4.6860E+5	4.5283	2.2277	-17.0
558.62	4.6870E+5	4.5283	2.2292	-16.8
558.79	4.6880E+5	4.5340	2.2230	-15.5
558.97	4.6890E+5	4.5340	2.2196	-16.4
559.17	4.6900E+5	4.5326	2.2206	-15.8
559.34	4.6910E+5	4.5283	2.2128	-17.7
559.52	4.6920E+5	4.5311	2.2131	-17.0
559.70	4.6930E+5	4.5340	2.2123	-16.2
559.87	4.6940E+5	4.5326	2.2082	-17.7
560.05	4.6950E+5	4.5311	2.2077	-14.1
560.22	4.6960E+5	4.5326	2.2066	-16.9
560.42	4.6970E+5	4.5297	2.1933	-17.3
560.60	4.6980E+5	4.5283	2.1997	-17.2
560.78	4.6990E+5	4.5311	2.1964	-14.9
560.97	4.7000E+5	4.5326	2.1916	-14.6
561.17	4.7010E+5	4.5326	2.1879	-16.1
561.35	4.7020E+5	4.5297	2.1850	-16.3
561.53	4.7030E+5	4.5354	2.1794	-16.1
561.72	4.7040E+5	4.5382	2.1728	-15.5
561.91	4.7050E+5	4.5283	2.1731	-17.1
562.08	4.7060E+5	4.5340	2.1678	-15.8
562.25	4.7070E+5	4.5340	2.1642	-16.2
562.45	4.7080E+5	4.5311	2.1674	-14.4
562.63	4.7090E+5	4.5354	2.1598	-16.7
562.81	4.7100E+5	4.5326	2.1618	-16.6
562.98	4.7110E+5	4.5326	2.1564	-16.3
563.18	4.7120E+5	4.5283	2.1571	-16.0
563.36	4.7130E+5	4.5269	2.1512	-17.9
563.55	4.7140E+5	4.5311	2.1503	-15.3
563.73	4.7150E+5	4.5354	2.1529	-16.5
563.93	4.7160E+5	4.5326	2.1390	-13.9
564.11	4.7170E+5	4.5283	2.1427	-14.9
564.29	4.7180E+5	4.5340	2.1462	-16.0
564.49	4.7190E+5	4.5340	2.1349	-15.5
564.68	4.7200E+5	4.5340	2.1332	-14.5
564.86	4.7210E+5	4.5354	2.1319	-14.5
565.02	4.7220E+5	4.5340	2.1264	-14.8
565.23	4.7230E+5	4.5354	2.1249	-16.2
565.41	4.7240E+5	4.5297	2.1217	-14.9
565.59	4.7250E+5	4.5354	2.1167	-15.2
565.77	4.7260E+5	4.5255	2.1110	-15.8
565.97	4.7270E+5	4.5326	2.1154	-16.9
566.16	4.7280E+5	4.5326	2.1046	-17.3
566.34	4.7290E+5	4.5297	2.1031	-15.6
566.52	4.7300E+5	4.5283	2.1022	-17.3
566.71	4.7310E+5	4.5382	2.1025	-16.5
566.87	4.7320E+5	4.5269	2.0967	-16.3
567.05	4.7330E+5	4.5326	2.0902	-15.2
567.26	4.7340E+5	4.5297	2.0853	-16.0
567.44	4.7350E+5	4.5311	2.0847	-15.5
567.60	4.7360E+5	4.5340	2.0850	-15.4
567.75	4.7370E+5	4.5326	2.0810	-15.8
567.95	4.7380E+5	4.5311	2.0789	-15.2
568.13	4.7390E+5	4.5311	2.0708	-15.4
568.32	4.7400E+5	4.5354	2.0817	-15.1
568.49	4.7410E+5	4.5354	2.0691	-15.6
568.68	4.7420E+5	4.5340	2.0645	-15.7
568.87	4.7430E+5	4.5354	2.0605	-15.7
569.05	4.7440E+5	4.5354	2.0652	-15.5
569.25	4.7450E+5	4.5311	2.0561	-15.5
569.43	4.7460E+5	4.5283	2.0506	-14.4
569.62	4.7470E+5	4.5283	2.0543	-16.3
569.80	4.7480E+5	4.5340	2.0510	-15.3
570.00	4.7490E+5	4.5269	2.0526	-15.0
570.18	4.7500E+5	4.5326	2.0444	-15.2
570.36	4.7510E+5	4.5368	2.0420	-16.7
570.55	4.7520E+5	4.5326	2.0307	-14.9
570.75	4.7530E+5	4.5368	2.0319	-15.7
570.91	4.7540E+5	4.5340	2.0376	-15.8
571.10	4.7550E+5	4.5311	2.0229	-14.8
571.28	4.7560E+5	4.5283	2.0298	-15.5
571.48	4.7570E+5	4.5354	2.0215	-12.9
571.66	4.7580E+5	4.5297	2.0177	-14.3
571.85	4.7590E+5	4.5326	2.0182	-17.4
572.03	4.7600E+5	4.5340	2.0127	-14.6
572.23	4.7610E+5	4.5326	2.0076	-15.6
572.41	4.7620E+5	4.5326	2.0130	-14.9
572.59	4.7630E+5	4.5311	2.0062	-15.0
572.79	4.7640E+5	4.5311	2.0079	-15.0
572.98	4.7650E+5	4.5311	2.0028	-17.3
573.16	4.7660E+5	4.5340	1.9974	-17.2
573.34	4.7670E+5	4.5368	1.9972	-16.7
573.52	4.7680E+5	4.5326	1.9926	-14.5
573.71	4.7690E+5	4.5326	1.9957	-14.4
573.89	4.7700E+5	4.5283	1.9884	-15.6
574.07	4.7710E+5	4.5368	1.9946	-13.9
574.27	4.7720E+5	4.5340	1.9853	-14.5
574.46	4.7730E+5	4.5326	1.9851	-15.5
574.62	4.7740E+5	4.5283	1.9757	-15.0
574.80	4.7750E+5	4.5326	1.9813	-14.9
575.00	4.7760E+5	4.5354	1.9776	-16.0
575.19	4.7770E+5	4.5326	1.9711	-15.3
575.37	4.7780E+5	4.5382	1.9687	-13.5
575.57	4.7790E+5	4.5297	1.9667	-13.4
575.75	4.7800E+5	4.5283	1.9605	-14.4
575.94	4.7810E+5	4.5311	1.9641	-15.2
576.12	4.7820E+5	4.5340	1.9563	-13.6
576.32	4.7830E+5	4.5340	1.9571	-15.5
576.48	4.7840E+5	4.5283	1.9465	-13.6
576.65	4.7850E+5	4.5326	1.9477	-14.2
576.84	4.7860E+5	4.5340	1.9477	-14.8
577.02	4.7870E+5	4.5255	1.9428	-14.5
577.20	4.7880E+5	4.5311	1.9465	-14.8
577.38	4.7890E+5	4.5326	1.9488	-14.9
577.57	4.7900E+5	4.5368	1.9375	-13.6
577.76	4.7910E+5	4.5311	1.9369	-14.7
577.91	4.7920E+5	4.5326	1.9314	-14.6
578.10	4.7930E+5	4.5354	1.9318	-16.5
578.26	4.7940E+5	4.5354	1.9327	-14.5
578.45	4.7950E+5	4.5326	1.9270	-14.2
578.63	4.7960E+5	4.5283	1.9297	-16.2
578.81	4.7970E+5	4.5326	1.9228	-13.9
579.00	4.7980E+5	4.5340	1.9208	-15.1
579.20	4.7990E+5	4.5283	1.9156	-14.2
579.38	4.8000E+5	4.5311	1.9133	-14.3
579.56	4.8010E+5	4.5368	1.9141	-14.9
579.76	4.8020E+5	4.5297	1.9044	-14.8
579.94	4.8030E+5	4.5311	1.9047	-13.6
580.11	4.8040E+5	4.5269	1.9034	-15.1
580.28	4.8050E+5	4.5340	1.8994	-13.5
580.48	4.8060E+5	4.5297	1.9018	-14.6
580.64	4.8070E+5	4.5326	1.8969	-15.2
580.83	4.8080E+5	4.5354	1.8894	-14.8
581.01	4.8090E+5	4.5269	1.8955	-14.8
581.21	4.8100E+5	4.5354	1.8895	-15.9
581.39	4.8110E+5	4.5269	1.8830	-15.6
581.57	4.8120E+5	4.5340	1.8946	-14.6
581.76	4.8130E+5	4.5368	1.8853	-11.8
581.96	4.8140E+5	4.5326	1.8738	-15.2
582.14	4.8150E+5	4.5340	1.8731	-13.6
582.31	4.8160E+5	4.5212	1.8724	-15.9
582.47	4.8170E+5	4.5340	1.8768	-13.2
582.67	4.8180E+5	4.5354	1.8764	-14.9
582.86	4.8190E+5	4.5269	1.8655	-14.6
583.04	4.8200E+5	4.5326	1.8658	-15.3
583.20	4.8210E+5	4.5340	1.8629	-15.8
583.40	4.8220E+5	4.5340	1.8553	-13.5
583.59	4.8230E+5	4.5326	1.8569	-15.0
583.75	4.8240E+5	4.5368	1.8635	-14.5
583.93	4.8250E+5	4.5326	1.8532	-14.8
584.12	4.8260E+5	4.5382	1.8625	-15.0
584.30	4.8270E+5	4.5368	1.8504	-15.2
584.48	4.8280E+5	4.5283	1.8538	-13.0
584.68	4.8290E+5	4.5283	1.8498	-15.2
584.87	4.8300E+5	4.5311	1.8477	-14.5
585.05	4.8310E+5	4.5326	1.8412	-16.0
585.23	4.8320E+5	4.5283	1.8392	-12.5
585.43	4.8330E+5	4.5340	1.8461	-16.6
585.61	4.8340E+5	4.5340	1.8368	-14.8
585.78	4.8350E+5	4.5311	1.8386	-14.6
585.96	4.8360E+5	4.5326	1.8399	-12.7
586.13	4.8370E+5	4.5311	1.8324	-15.5
586.31	4.8380E+5	4.5311	1.8263	-15.6
586.50	4.8390E+5	4.5269	1.8294	-14.0
586.68	4.8400E+5	4.5311	1.8200	-15.8
586.88	4.8410E+5	4.5354	1.8279	-13.9
587.06	4.8420E+5	4.5326	1.8232	-13.6
587.25	4.8430E+5	4.5269	1.8144	-14.6
587.43	4.8440E+5	4.5311	1.8122	-12.7
587.61	4.8450E+5	4.5326	1.8119	-15.3
587.78	4.8460E+5	4.5311	1.8133	-13.2
587.94	4.8470E+5	4.5311	1.8134	-15.0
588.09	4.8480E+5	4.5382	1.8137	-13.1
588.28	4.8490E+5	4.5368	1.8074	-14.7
588.46	4.8500E+5	4.5368	1.8065	-15.7
588.62	4.8510E+5	4.5326	1.8023	-13.1
588.81	4.8520E+5	4.5311	1.8041	-14.1
589.01	4.8530E+5	4.5311	1.7990	-13.3
589.19	4.8540E+5	4.5368	1.8024	-14.1
589.37	4.8550E+5	4.5340	1.7921	-14.0
589.56	4.8560E+5	4.5311	1.7920	-14.2
589.74	4.8570E+5	4.5311	1.7952	-15.6
589.92	4.8580E+5	4.5368	1.7917	-14.5
590.09	4.8590E+5	4.5354	1.7880	-13.6
590.27	4.8600E+5	4.5326	1.7854	-13.1
590.47	4.8610E+5	4.5297	1.7822	-14.5
590.65	4.8620E+5	4.5297	1.7828	-12.8
590.82	4.8630E+5	4.5354	1.7802	-14.2
591.00	4.8640E+5	4.5297	1.7795	-12.8
591.17	4.8650E+5	4.5382	1.7799	-14.4
591.34	4.8660E+5	4.5354	1.7731	-14.8
591.52	4.8670E+5	4.5326	1.7700	-16.1
591.70	4.8680E+5	4.5340	1.7765	-15.6
591.90	4.8690E+5	4.5311	1.7710	-14.9
592.08	4.8700E+5	4.5410	1.7697	-13.7
592.27	4.8710E+5	4.5311	1.7589	-14.5
592.47	4.8720E+5	4.5311	1.7618	-14.6
592.67	4.8730E+5	4.5311	1.7641	-15.8
592.85	4.8740E+5	4.5326	1.7596	-12.1
593.03	4.8750E+5	4.5340	1.7528	-13.5
593.22	4.8760E+5	4.5396	1.7589	-15.0
593.41	4.8770E+5	4.5311	1.7538	-13.2
593.60	4.8780E+5	4.5269	1.7487	-14.0
593.78	4.8790E+5	4.5269	1.7490	-14.0
593.95	4.8800E+5	4.5368	1.7480	-13.4
594.13	4.8810E+5	4.5354	1.7437	-14.5
594.31	4.8820E+5	4.5340	1.7509	-12.7
594.50	4.8830E+5	4.5340	1.7410	-13.5
594.68	4.8840E+5	4.5340	1.7473	-15.5
594.88	4.8850E+5	4.5297	1.7331	-13.6
595.06	4.8860E+5	4.5368	1.7392	-13.7
595.25	4.8870E+5	4.5326	1.7357	-13.8
595.45	4.8880E+5	4.5382	1.7364	-13.6
595.61	4.8890E+5	4.5326	1.7352	-14.1
595.79	4.8900E+5	4.5368	1.7293	-14.1
595.98	4.8910E+5	4.5326	1.7275	-14.5
596.16	4.8920E+5	4.5340	1.7190	-13.4
596.34	4.8930E+5	4.5326	1.7224	-13.8
596.51	4.8940E+5	4.5354	1.7193	-15.2
596.69	4.8950E+5	4.5368	1.7184	-14.0
596.87	4.8960E+5	4.5311	1.7125	-14.1
597.06	4.8970E+5	4.5297	1.7198	-14.5
597.24	4.8980E+5	4.5354	1.7116	-13.2
597.42	4.8990E+5	4.5326	1.7132	-15.1
597.62	4.9000E+5	4.5340	1.7173	-13.6
597.80	4.9010E+5	4.5326	1.7136	-12.9
597.99	4.9020E+5	4.5311	1.7009	-16.4
598.17	4.9030E+5	4.5410	1.7122	-13.9
598.39	4.9040E+5	4.5311	1.7037	-14.3
598.59	4.9050E+5	4.5326	1.7082	-13.9
598.77	4.9060E+5	4.5340	1.7023	-12.7
598.94	4.9070E+5	4.5368	1.6965	-13.1
599.14	4.9080E+5	4.5354	1.6983	-14.1
599.30	4.9090E+5	4.5340	1.6938	-15.0
599.49	4.9100E+5	4.5354	1.6993	-12.5
599.67	4.9110E+5	4.5382	1.6874	-12.3
599.87	4.9120E+5	4.5368	1.6889	-12.8
600.03	4.9130E+5	4.5340	1.6877	-12.7
600.20	4.9140E+5	4.5354	1.6920	-13.9
600.38	4.9150E+5	4.5311	1.6829	-12.1
600.57	4.9160E+5	4.5340	1.6828	-12.0
600.75	4.9170E+5	4.5396	1.6874	-12.5
600.92	4.9180E+5	4.5326	1.6807	-13.8
601.10	4.9190E+5	4.5326	1.6770	-13.2
601.28	4.9200E+5	4.5297	1.6730	-15.2
601.48	4.9210E+5	4.5326	1.6719	-11.9
601.65	4.9220E+5	4.5311	1.6685	-14.6
601.82	4.9230E+5	4.5311	1.6625	-15.3
602.00	4.9240E+5	4.5326	1.6683	-12.4
602.20	4.9250E+5	4.5382	1.6669	-15.0
602.38	4.9260E+5	4.5368	1.6624	-14.4
602.56	4.9270E+5	4.5396	1.6654	-11.4
602.75	4.9280E+5	4.5368	1.6536	-13.2
602.95	4.9290E+5	4.5326	1.6580	-14.3
603.13	4.9300E+5	4.5340	1.6542	-13.6
603.31	4.9310E+5	4.5382	1.6583	-11.7
603.50	4.9320E+5	4.5382	1.6590	-14.1
603.69	4.9330E+5	4.5297	1.6491	-12.9
603.88	4.9340E+5	4.5326	1.6485	-15.4
604.04	4.9350E+5	4.5354	1.6511	-12.1
604.23	4.9360E+5	4.5283	1.6459	-13.4
604.42	4.9370E+5	4.5382	1.6507	-12.9
604.61	4.9380E+5	4.5382	1.6466	-13.1
604.79	4.9390E+5	4.5368	1.6429	-13.5
604.97	4.9400E+5	4.5311	1.6436	-13.9
605.16	4.9410E+5	4.5326	1.6399	-14.0
605.34	4.9420E+5	4.5326	1.6395	-13.8
605.49	4.9430E+5	4.5297	1.6370	-12.1
605.67	4.9440E+5	4.5410	1.6379	-15.5
605.87	4.9450E+5	4.5340	1.6337	-14.9
606.07	4.9460E+5	4.5354	1.6326	-11.8
606.25	4.9470E+5	4.5382	1.6341	-12.5
606.44	4.9480E+5	4.5439	1.6245	-13.7
606.65	4.9490E+5	4.5340	1.6201	-13.9
606.85	4.9500E+5	4.5368	1.6246	-12.8
607.04	4.9510E+5	4.5326	1.6177	-13.8
607.22	4.9520E+5	4.5340	1.6239	-12.4
607.42	4.9530E+5	4.5396	1.6232	-13.0
607.59	4.9540E+5	4.5311	1.6173	-14.6
607.75	4.9550E+5	4.5354	1.6210	-12.7
607.93	4.9560E+5	4.5396	1.6176	-14.5
608.13	4.9570E+5	4.5354	1.6118	-13.2
608.32	4.9580E+5	4.5340	1.6111	-14.1
608.48	4.9590E+5	4.5340	1.6084	-14.8
608.67	4.9600E+5	4.5297	1.6063	-13.7
608.87	4.9610E+5	4.5354	1.6017	-13.9
609.05	4.9620E+5	4.5368	1.6054	-14.2
609.23	4.9630E+5	4.5340	1.6036	-13.1
609.41	4.9640E+5	4.5297	1.6019	-11.8
609.62	4.9650E+5	4.5326	1.6027	-12.7
609.80	4.9660E+5	4.5326	1.5921	-14.7
609.98	4.9670E+5	4.5326	1.5934	-13.0
610.15	4.9680E+5	4.5382	1.5978	-12.4
610.35	4.9690E+5	4.5340	1.5916	-13.1
610.53	4.9700E+5	4.5311	1.5845	-14.2
610.71	4.9710E+5	4.5283	1.5832	-13.6
610.88	4.9720E+5	4.5326	1.5848	-11.8
611.04	4.9730E+5	4.5340	1.5831	-12.7
611.23	4.9740E+5	4.5311	1.5809	-14.2
611.41	4.9750E+5	4.5297	1.5760	-13.5
611.59	4.9760E+5	4.5368	1.5726	-14.6
611.78	4.9770E+5	4.5396	1.5778	-14.5
611.98	4.9780E+5	4.5368	1.5733	-13.7
612.16	4.9790E+5	4.5297	1.5753	-13.1
612.34	4.9800E+5	4.5396	1.5682	-13.3
612.53	4.9810E+5	4.5311	1.5742	-15.1
612.72	4.9820E+5	4.5354	1.5643	-11.9
612.91	4.9830E+5	4.5269	1.5653	-13.1
613.07	4.9840E+5	4.5382	1.5720	-13.2
613.26	4.9850E+5	4.5368	1.5626	-14.5
613.46	4.9860E+5	4.5340	1.5636	-11.2
613.64	4.9870E+5	4.5311	1.5633	-13.2
613.80	4.9880E+5	4.5311	1.5563	-15.1
613.97	4.9890E+5	4.5382	1.5617	-12.4
614.17	4.9900E+5	4.5326	1.5551	-14.1
614.35	4.9910E+5	4.5326	1.5542	-11.5
614.54	4.9920E+5	4.5311	1.5546	-12.1
614.72	4.9930E+5	4.5311	1.5559	-13.6
614.90	4.9940E+5	4.5326	1.5563	-14.4
615.07	4.9950E+5	4.5368	1.5500	-13.6
615.25	4.9960E+5	4.5311	1.5513	-10.4
615.42	4.9970E+5	4.5410	1.5538	-11.5
615.63	4.9980E+5	4.5368	1.5481	-13.9
615.84	4.9990E+5	4.5340	1.5493	-13.4
616.02	5.0000E+5	4.5340	1.5483	-13.5
616.20	5.0010E+5	4.5340	1.5380	-13.9
616.37	5.0020E+5	4.5340	1.5447	-12.8
616.57	5.0030E+5	4.5340	1.5384	-13.9
616.75	5.0040E+5	4.5396	1.5415	-13.5
616.93	5.0050E+5	4.5354	1.5419	-14.2
617.10	5.0060E+5	4.5340	1.5373	-13.4
617.30	5.0070E+5	4.5425	1.5360	-11.3
617.48	5.0080E+5	4.5326	1.5351	-14.1
617.66	5.0090E+5	4.5354	1.5365	-11.8
617.83	5.0100E+5	4.5311	1.5315	-13.1
618.03	5.0110E+5	4.5311	1.5292	-13.2
618.20	5.0120E+5	4.5340	1.5193	-13.9
618.38	5.0130E+5	4.5269	1.5266	-11.8
618.56	5.0140E+5	4.5326	1.5184	-14.1
618.76	5.0150E+5	4.5368	1.5255	-10.4
618.95	5.0160E+5	4.5297	1.5235	-12.8
619.11	5.0170E+5	4.5368	1.5235	-12.5
619.28	5.0180E+5	4.5269	1.5234	-12.7
619.46	5.0190E+5	4.5368	1.5176	-15.1
619.64	5.0200E+5	4.5326	1.5146	-13.1
619.83	5.0210E+5	4.5354	1.5235	-14.2
620.01	5.0220E+5	4.5297	1.5143	-14.1
620.19	5.0230E+5	4.5340	1.5193	-11.4
620.39	5.0240E+5	4.5354	1.5095	-12.3
620.58	5.0250E+5	4.5311	1.5102	-11.5
620.72	5.0260E+5	4.5354	1.5066	-13.7
620.89	5.0270E+5	4.5368	1.5108	-12.0
621.09	5.0280E+5	4.5269	1.5057	-12.5
621.27	5.0290E+5	4.5396	1.5066	-13.5
621.46	5.0300E+5	4.5382	1.5080	-13.0
621.61	5.0310E+5	4.5326	1.4999	-13.1
621.80	5.0320E+5	4.5340	1.5005	-11.9
621.97	5.0330E+5	4.5326	1.4988	-14.0
622.14	5.0340E+5	4.5326	1.4941	-12.7
622.30	5.0350E+5	4.5354	1.5005	-12.6
622.50	5.0360E+5	4.5340	1.4954	-13.7
622.67	5.0370E+5	4.5368	1.4934	-14.4
622.85	5.0380E+5	4.5311	1.4886	-12.7
623.04	5.0390E+5	4.5368	1.4920	-11.9
623.24	5.0400E+5	4.5382	1.4883	-13.2
623.42	5.0410E+5	4.5326	1.4931	-12.1
623.60	5.0420E+5	4.5311	1.4894	-13.5
623.78	5.0430E+5	4.5382	1.4812	-14.1
623.97	5.0440E+5	4.5340	1.4835	-13.4
624.15	5.0450E+5	4.5269	1.4834	-10.4
624.32	5.0460E+5	4.5368	1.4832	-11.5
624.48	5.0470E+5	4.5340	1.4820	-14.9
624.65	5.0480E+5	4.5354	1.4827	-14.0
624.83	5.0490E+5	4.5340	1.4786	-12.6
625.01	5.0500E+5	4.5241	1.4740	-15.2
625.20	5.0510E+5	4.5340	1.4745	-13.1
625.36	5.0520E+5	4.5396	1.4764	-13.1
625.57	5.0530E+5	4.5368	1.4674	-12.9
625.75	5.0540E+5	4.5396	1.4753	-11.0
625.93	5.0550E+5	4.5340	1.4725	-12.5
626.11	5.0560E+5	4.5368	1.4723	-13.5
626.30	5.0570E+5	4.5382	1.4640	-14.4
626.48	5.0580E+5	4.5255	1.4657	-11.8
626.64	5.0590E+5	4.5368	1.4598	-13.9
626.81	5.0600E+5	4.5340	1.4609	-13.3
626.98	5.0610E+5	4.5396	1.4647	-11.8
627.18	5.0620E+5	4.5326	1.4610	-13.1
627.36	5.0630E+5	4.5354	1.4653	-11.5
627.53	5.0640E+5	4.5368	1.4571	-12.1
627.71	5.0650E+5	4.5354	1.4629	-10.3
627.91	5.0660E+5	4.5326	1.4582	-12.9
628.09	5.0670E+5	4.5368	1.4523	-13.5
628.27	5.0680E+5	4.5326	1.4476	-13.8
628.46	5.0690E+5	4.5297	1.4524	-11.3
628.66	5.0700E+5	4.5283	1.4460	-12.7
628.84	5.0710E+5	4.5326	1.4472	-12.5
629.02	5.0720E+5	4.5326	1.4442	-14.2
629.21	5.0730E+5	4.5354	1.4443	-11.4
629.39	5.0740E+5	4.5311	1.4395	-13.5
629.57	5.0750E+5	4.5354	1.4342	-12.9
629.75	5.0760E+5	4.5340	1.4286	-13.8
629.92	5.0770E+5	4.5382	1.4342	-10.6
630.11	5.0780E+5	4.5354	1.4351	-11.2
630.29	5.0790E+5	4.5311	1.4317	-12.7
630.47	5.0800E+5	4.5326	1.4295	-14.2
630.65	5.0810E+5	4.5340	1.4268	-11.5
630.84	5.0820E+5	4.5396	1.4274	-11.8
631.03	5.0830E+5	4.5396	1.4250	-13.2
631.22	5.0840E+5	4.5396	1.4247	-12.1
631.38	5.0850E+5	4.5340	1.4231	-12.4
631.55	5.0860E+5	4.5354	1.4209	-9.9
631.75	5.0870E+5	4.5326	1.4211	-10.8
631.92	5.0880E+5	4.5382	1.4234	-11.4
632.10	5.0890E+5	4.5354	1.4163	-13.9
632.28	5.0900E+5	4.5396	1.4158	-14.6
632.45	5.0910E+5	4.5326	1.4094	-12.5
632.65	5.0920E+5	4.5297	1.4139	-11.4
632.82	5.0930E+5	4.5297	1.4121	-14.5
633.00	5.0940E+5	4.5368	1.4036	-13.8
633.16	5.0950E+5	4.5340	1.4069	-11.7
633.36	5.0960E+5	4.5368	1.4100	-10.7
633.55	5.0970E+5	4.5354	1.4084	-11.8
633.71	5.0980E+5	4.5396	1.4059	-14.7
633.89	5.0990E+5	4.5425	1.4098	-12.0
634.11	5.1000E+5	4.5368	1.4008	-12.7
634.31	5.1010E+5	4.5354	1.3933	-13.2
634.49	5.1020E+5	4.5368	1.3980	-11.8
634.68	5.1030E+5	4.5354	1.3933	-13.1
634.86	5.1040E+5	4.5368	1.3924	-12.5
635.06	5.1050E+5	4.5354	1.3958	-12.1
635.24	5.1060E+5	4.5354	1.3927	-11.9
635.42	5.1070E+5	4.5326	1.3917	-12.2
635.59	5.1080E+5	4.5354	1.3849	-13.0
635.79	5.1090E+5	4.5396	1.3862	-12.0
635.96	5.1100E+5	4.5368	1.3842	-11.5
636.14	5.1110E+5	4.5340	1.3782	-12.5
636.32	5.1120E+5	4.5425	1.3749	-12.4
636.54	5.1130E+5	4.5368	1.3726	-14.3
636.74	5.1140E+5	4.5396	1.3779	-14.5
636.92	5.1150E+5	4.5297	1.3858	-13.2
637.11	5.1160E+5	4.5354	1.3759	-11.1
637.29	5.1170E+5	4.5396	1.3735	-13.9
637.47	5.1180E+5	4.5255	1.3742	-11.0
637.64	5.1190E+5	4.5326	1.3692	-13.8
637.82	5.1200E+5	4.5326	1.3675	-12.9
638.00	5.1210E+5	4.5326	1.3714	-13.4
638.20	5.1220E+5	4.5283	1.3667	-12.9
638.39	5.1230E+5	4.5297	1.3684	-12.8
638.57	5.1240E+5	4.5326	1.3569	-12.1
638.75	5.1250E+5	4.5297	1.3588	-11.7
638.92	5.1260E+5	4.5283	1.3610	-11.6
639.12	5.1270E+5	4.5425	1.3596	-13.7
639.30	5.1280E+5	4.5311	1.3554	-15.3
639.50	5.1290E+5	4.5340	1.3517	-11.5
639.68	5.1300E+5	4.5340	1.3504	-11.4
639.88	5.1310E+5	4.5340	1.3465	-13.7
640.07	5.1320E+5	4.5340	1.3482	-12.8
640.25	5.1330E+5	4.5297	1.3492	-11.4
640.41	5.1340E+5	4.5311	1.3466	-12.7
640.62	5.1350E+5	4.5368	1.3480	-11.4
640.80	5.1360E+5	4.5269	1.3432	-14.7
640.98	5.1370E+5	4.5368	1.3441	-12.1
641.13	5.1380E+5	4.5410	1.3511	-13.7
641.33	5.1390E+5	4.5326	1.3419	-11.4
641.55	5.1400E+5	4.5326	1.3449	-10.5
641.73	5.1410E+5	4.5368	1.3408	-11.8
641.90	5.1420E+5	4.5340	1.3391	-11.5
642.08	5.1430E+5	4.5340	1.3439	-11.1
642.28	5.1440E+5	4.5297	1.3360	-11.5
642.46	5.1450E+5	4.5297	1.3383	-13.4
642.64	5.1460E+5	4.5311	1.3339	-12.0
642.83	5.1470E+5	4.5410	1.3352	-13.4
643.01	5.1480E+5	4.5368	1.3281	-13.9
643.23	5.1490E+5	4.5368	1.3279	-12.9
643.41	5.1500E+5	4.5368	1.3342	-11.0
643.59	5.1510E+5	4.5311	1.3264	-11.9
643.77	5.1520E+5	4.5439	1.3294	-12.6
643.99	5.1530E+5	4.5340	1.3291	-12.1
644.17	5.1540E+5	4.5326	1.3260	-12.8
644.36	5.1550E+5	4.5368	1.3206	-11.9
644.54	5.1560E+5	4.5354	1.3305	-12.8
644.74	5.1570E+5	4.5311	1.3206	-12.6
644.92	5.1580E+5	4.5410	1.3255	-12.7
645.12	5.1590E+5	4.5368	1.3209	-12.9
645.32	5.1600E+5	4.5354	1.3231	-12.3
645.50	5.1610E+5	4.5368	1.3077	-12.5
645.69	5.1620E+5	4.5396	1.3195	-11.5
645.85	5.1630E+5	4.5410	1.3163	-12.8
646.04	5.1640E+5	4.5382	1.3127	-13.1
646.22	5.1650E+5	4.5326	1.3121	-10.8
646.39	5.1660E+5	4.5425	1.3101	-11.0
646.57	5.1670E+5	4.5354	1.3107	-12.9
646.74	5.1680E+5	4.5354	1.3079	-11.7
646.90	5.1690E+5	4.5382	1.3066	-11.4
647.05	5.1700E+5	4.5354	1.3097	-12.3
647.23	5.1710E+5	4.5382	1.2987	-13.2
647.40	5.1720E+5	4.5410	1.3022	-9.6
647.60	5.1730E+5	4.5326	1.3038	-11.9
647.80	5.1740E+5	4.5396	1.3042	-11.8
647.97	5.1750E+5	4.5382	1.3033	-10.7
648.12	5.1760E+5	4.5311	1.3019	-10.4
648.28	5.1770E+5	4.5382	1.2967	-12.0
648.45	5.1780E+5	4.5368	1.2994	-12.5
648.62	5.1790E+5	4.5283	1.3035	-12.9
648.82	5.1800E+5	4.5382	1.2992	-10.7
649.00	5.1810E+5	4.5326	1.2944	-12.0
649.18	5.1820E+5	4.5368	1.2868	-11.4
649.36	5.1830E+5	4.5368	1.2961	-11.4
649.56	5.1840E+5	4.5340	1.2881	-11.1
649.75	5.1850E+5	4.5368	1.2930	-12.7
649.93	5.1860E+5	4.5326	1.2851	-11.5
650.11	5.1870E+5	4.5368	1.2892	-13.3
650.29	5.1880E+5	4.5382	1.2851	-12.8
650.50	5.1890E+5	4.5340	1.2826	-12.1
650.68	5.1900E+5	4.5297	1.2828	-12.9
650.86	5.1910E+5	4.5382	1.2940	-13.2
651.04	5.1920E+5	4.5340	1.2874	-12.1
651.24	5.1930E+5	4.5340	1.2766	-11.7
651.42	5.1940E+5	4.5269	1.2789	-14.0
651.59	5.1950E+5	4.5453	1.2803	-11.7
651.79	5.1960E+5	4.5354	1.2776	-12.7
651.99	5.1970E+5	4.5396	1.2779	-13.6
652.17	5.1980E+5	4.5340	1.2677	-12.4
652.36	5.1990E+5	4.5326	1.2729	-11.8
652.52	5.2000E+5	4.5311	1.2779	-12.4
652.71	5.2010E+5	4.5340	1.2752	-11.3
652.89	5.2020E+5	4.5340	1.2704	-10.1
653.05	5.2030E+5	4.5340	1.2697	-12.5
653.20	5.2040E+5	4.5354	1.2711	-12.5
653.36	5.2050E+5	4.5354	1.2676	-11.1
653.54	5.2060E+5	4.5354	1.2698	-13.2
653.74	5.2070E+5	4.5368	1.2671	-10.3
653.92	5.2080E+5	4.5340	1.2673	-11.1
654.09	5.2090E+5	4.5326	1.2643	-11.2
654.27	5.2100E+5	4.5396	1.2670	-12.9
654.47	5.2110E+5	4.5297	1.2632	-12.6
654.65	5.2120E+5	4.5368	1.2635	-10.8
654.82	5.2130E+5	4.5368	1.2611	-10.5
655.00	5.2140E+5	4.5340	1.2608	-11.3
655.17	5.2150E+5	4.5340	1.2534	-10.7
655.37	5.2160E+5	4.5311	1.2612	-13.2
655.55	5.2170E+5	4.5340	1.2560	-10.1
655.73	5.2180E+5	4.5326	1.2523	-11.0
655.91	5.2190E+5	4.5340	1.2554	-11.8
656.12	5.2200E+5	4.5368	1.2500	-10.5
656.30	5.2210E+5	4.5382	1.2503	-11.8
656.46	5.2220E+5	4.5382	1.2548	-11.4
656.65	5.2230E+5	4.5425	1.2495	-12.1
656.85	5.2240E+5	4.5368	1.2495	-11.4
657.05	5.2250E+5	4.5354	1.2462	-12.7
657.23	5.2260E+5	4.5382	1.2434	-12.2
657.41	5.2270E+5	4.5354	1.2486	-11.0
657.60	5.2280E+5	4.5354	1.2463	-11.4
657.78	5.2290E+5	4.5340	1.2428	-13.1
657.96	5.2300E+5	4.5368	1.2461	-10.0
658.13	5.2310E+5	4.5368	1.2404	-10.1
658.31	5.2320E+5	4.5354	1.2410	-9.9
658.48	5.2330E+5	4.5410	1.2448	-9.6
658.69	5.2340E+5	4.5354	1.2442	-13.2
658.88	5.2350E+5	4.5368	1.2386	-12.2
659.06	5.2360E+5	4.5340	1.2391	-11.5
659.23	5.2370E+5	4.5326	1.2403	-12.8
659.41	5.2380E+5	4.5410	1.2442	-10.8
659.61	5.2390E+5	4.5354	1.2338	-11.8
659.81	5.2400E+5	4.5410	1.2389	-10.1
660.01	5.2410E+5	4.5326	1.2362	-13.8
660.21	5.2420E+5	4.5396	1.2328	-12.3
660.41	5.2430E+5	4.5326	1.2285	-11.0
660.59	5.2440E+5	4.5297	1.2277	-10.7
660.75	5.2450E+5	4.5382	1.2291	-11.6
660.92	5.2460E+5	4.5425	1.2299	-10.8
661.11	5.2470E+5	4.5354	1.2298	-12.1
661.30	5.2480E+5	4.5326	1.2260	-11.2
661.49	5.2490E+5	4.5368	1.2264	-9.1
661.67	5.2500E+5	4.5382	1.2253	-11.1
661.85	5.2510E+5	4.5326	1.2274	-11.8
662.05	5.2520E+5	4.5340	1.2233	-12.5
662.24	5.2530E+5	4.5382	1.2147	-11.7
662.42	5.2540E+5	4.5382	1.2199	-10.7
662.60	5.2550E+5	4.5368	1.2249	-11.0
662.78	5.2560E+5	4.5326	1.2185	-12.4
662.99	5.2570E+5	4.5340	1.2158	-13.4
663.17	5.2580E+5	4.5311	1.2159	-11.2
663.33	5.2590E+5	4.5382	1.2198	-11.1
663.52	5.2600E+5	4.5382	1.2200	-13.6
663.70	5.2610E+5	4.5354	1.2176	-10.7
663.88	5.2620E+5	4.5425	1.2141	-11.7
664.08	5.2630E+5	4.5354	1.2131	-14.1
664.27	5.2640E+5	4.5368	1.2058	-11.0
664.45	5.2650E+5	4.5354	1.2089	-12.3
664.65	5.2660E+5	4.5340	1.2083	-11.4
664.81	5.2670E+5	4.5382	1.2150	-12.2
665.00	5.2680E+5	4.5368	1.2113	-11.7
665.18	5.2690E+5	4.5297	1.2049	-11.5
665.36	5.2700E+5	4.5368	1.2073	-12.1
665.56	5.2710E+5	4.5340	1.2101	-12.5
665.75	5.2720E+5	4.5368	1.2038	-12.1
665.93	5.2730E+5	4.5368	1.2049	-11.0
666.09	5.2740E+5	4.5340	1.2002	-12.1
666.29	5.2750E+5	4.5410	1.2026	-10.6
666.49	5.2760E+5	4.5297	1.1994	-11.6
666.69	5.2770E+5	4.5368	1.1946	-11.0
666.87	5.2780E+5	4.5439	1.1998	-12.9
667.08	5.2790E+5	4.5283	1.1971	-12.5
667.29	5.2800E+5	4.5326	1.1956	-10.0
667.46	5.2810E+5	4.5340	1.1956	-11.9
667.62	5.2820E+5	4.5326	1.1980	-10.6
667.79	5.2830E+5	4.5382	1.1968	-11.4
667.97	5.2840E+5	4.5410	1.1926	-11.8
668.19	5.2850E+5	4.5326	1.1936	-11.1
668.37	5.2860E+5	4.5297	1.1913	-10.7
668.55	5.2870E+5	4.5425	1.1885	-10.4
668.76	5.2880E+5	4.5340	1.1929	-11.2
668.97	5.2890E+5	4.5340	1.1923	-11.5
669.14	5.2900E+5	4.5382	1.1898	-11.1
669.32	5.2910E+5	4.5326	1.1793	-10.4
669.50	5.2920E+5	4.5326	1.1891	-11.8
669.69	5.2930E+5	4.5396	1.1854	-10.4
669.89	5.2940E+5	4.5283	1.1802	-11.7
670.07	5.2950E+5	4.5340	1.1853	-11.5
670.25	5.2960E+5	4.5368	1.1821	-11.9
670.43	5.2970E+5	4.5340	1.1857	-13.8
670.62	5.2980E+5	4.5354	1.1786	-12.4
670.82	5.2990E+5	4.5269	1.1759	-10.2
671.00	5.3000E+5	4.5368	1.1802	-9.7
671.18	5.3010E+5	4.5354	1.1786	-11.2
671.35	5.3020E+5	4.5368	1.1810	-11.8
671.55	5.3030E+5	4.5340	1.1769	-12.4
671.73	5.3040E+5	4.5354	1.1734	-12.5
671.90	5.3050E+5	4.5326	1.1721	-10.7
672.07	5.3060E+5	4.5382	1.1742	-10.0
672.25	5.3070E+5	4.5297	1.1739	-10.7
672.43	5.3080E+5	4.5382	1.1765	-10.5
672.62	5.3090E+5	4.5368	1.1674	-11.2
672.80	5.3100E+5	4.5354	1.1737	-11.8
672.98	5.3110E+5	4.5382	1.1664	-10.6
673.16	5.3120E+5	4.5368	1.1676	-10.3
673.36	5.3130E+5	4.5354	1.1659	-12.5
673.54	5.3140E+5	4.5340	1.1711	-10.9
673.73	5.3150E+5	4.5368	1.1653	-11.0
673.91	5.3160E+5	4.5311	1.1626	-12.1
674.11	5.3170E+5	4.5311	1.1623	-10.8
674.28	5.3180E+5	4.5382	1.1585	-11.0
674.44	5.3190E+5	4.5382	1.1594	-11.4
674.61	5.3200E+5	4.5396	1.1587	-11.4
674.78	5.3210E+5	4.5283	1.1623	-10.7
674.98	5.3220E+5	4.5396	1.1604	-12.5
675.16	5.3230E+5	4.5340	1.1588	-11.0
675.33	5.3240E+5	4.5340	1.1677	-9.7
675.51	5.3250E+5	4.5311	1.1502	-13.5
675.69	5.3260E+5	4.5326	1.1570	-11.5
675.89	5.3270E+5	4.5396	1.1581	-11.0
676.06	5.3280E+5	4.5354	1.1557	-10.1
676.22	5.3290E+5	4.5326	1.1530	-10.8
676.40	5.3300E+5	4.5340	1.1544	-11.4
676.59	5.3310E+5	4.5354	1.1512	-10.0
676.77	5.3320E+5	4.5368	1.1481	-11.6
676.96	5.3330E+5	4.5311	1.1447	-12.7
677.14	5.3340E+5	4.5340	1.1500	-11.4
677.32	5.3350E+5	4.5410	1.1462	-12.0
677.54	5.3360E+5	4.5311	1.1427	-10.7
677.74	5.3370E+5	4.5368	1.1407	-13.9
677.92	5.3380E+5	4.5311	1.1447	-11.0
678.10	5.3390E+5	4.5340	1.1461	-10.7
678.27	5.3400E+5	4.5410	1.1431	-11.7
678.49	5.3410E+5	4.5354	1.1399	-12.4
678.68	5.3420E+5	4.5354	1.1350	-11.0
678.87	5.3430E+5	4.5439	1.1457	-11.5
679.07	5.3440E+5	4.5340	1.1380	-12.5
679.27	5.3450E+5	4.5368	1.1423	-12.3
679.47	5.3460E+5	4.5354	1.1380	-11.1
679.65	5.3470E+5	4.5311	1.1397	-10.0
679.83	5.3480E+5	4.5396	1.1336	-11.0
680.00	5.3490E+5	4.5354	1.1370	-11.7
680.20	5.3500E+5	4.5297	1.1288	-12.4
680.38	5.3510E+5	4.5283	1.1348	-10.9
680.56	5.3520E+5	4.5326	1.1329	-10.8
680.73	5.3530E+5	4.5340	1.1317	-11.9
680.90	5.3540E+5	4.5311	1.1268	-11.0
681.10	5.3550E+5	4.5382	1.1321	-10.3
681.28	5.3560E+5	4.5326	1.1321	-10.7
681.45	5.3570E+5	4.5368	1.1350	-11.1
681.63	5.3580E+5	4.5326	1.1284	-11.2
681.79	5.3590E+5	4.5326	1.1206	-13.2
681.99	5.3600E+5	4.5354	1.1222	-10.1
682.18	5.3610E+5	4.5340	1.1251	-9.8
682.36	5.3620E+5	4.5326	1.1189	-12.2
682.53	5.3630E+5	4.5368	1.1199	-11.1
682.69	5.3640E+5	4.5297	1.1199	-12.3
682.88	5.3650E+5	4.5311	1.1229	-10.3
683.06	5.3660E+5	4.5354	1.1171	-10.9
683.24	5.3670E+5	4.5354	1.1182	-12.1
683.41	5.3680E+5	4.5368	1.1171	-10.2
683.57	5.3690E+5	4.5354	1.1171	-12.0
683.76	5.3700E+5	4.5311	1.1145	-9.6
683.94	5.3710E+5	4.5382	1.1111	-11.2
684.12	5.3720E+5	4.5340	1.1150	-12.3
684.29	5.3730E+5	4.5410	1.1109	-13.2
684.50	5.3740E+5	4.5368	1.1154	-11.6
684.71	5.3750E+5	4.5311	1.1121	-11.3
684.89	5.3760E+5	4.5396	1.1087	-11.8
685.07	5.3770E+5	4.5368	1.1038	-12.2
685.25	5.3780E+5	4.5326	1.1133	-10.7
685.45	5.3790E+5	4.5368	1.1109	-10.7
685.64	5.3800E+5	4.5396	1.1062	-11.7
685.82	5.3810E+5	4.5354	1.1131	-12.7
686.00	5.3820E+5	4.5340	1.1062	-10.8
686.18	5.3830E+5	4.5340	1.1027	-10.0
686.39	5.3840E+5	4.5340	1.1069	-10.4
686.57	5.3850E+5	4.5368	1.1049	-10.4
686.73	5.3860E+5	4.5297	1.0990	-9.4
686.90	5.3870E+5	4.5311	1.0963	-9.7
687.08	5.3880E+5	4.5311	1.1070	-10.4
687.28	5.3890E+5	4.5354	1.1042	-11.5
687.47	5.3900E+5	4.5340	1.0966	-10.4
687.65	5.3910E+5	4.5410	1.1044	-10.7
687.85	5.3920E+5	4.5382	1.0966	-11.4
688.05	5.3930E+5	4.5340	1.1052	-13.1
688.25	5.3940E+5	4.5396	1.0935	-12.6
688.43	5.3950E+5	4.5368	1.0945	-12.4
688.60	5.3960E+5	4.5340	1.0971	-10.4
688.78	5.3970E+5	4.5326	1.0964	-13.2
688.95	5.3980E+5	4.5340	1.0916	-11.5
689.15	5.3990E+5	4.5340	1.0932	-10.6
689.31	5.4000E+5	4.5368	1.0947	-9.6
689.48	5.4010E+5	4.5396	1.0938	-10.8
689.64	5.4020E+5	4.5354	1.0884	-11.1
689.84	5.4030E+5	4.5340	1.0935	-13.0
690.03	5.4040E+5	4.5326	1.0902	-11.5
690.21	5.4050E+5	4.5326	1.0942	-9.4
690.38	5.4060E+5	4.5297	1.0856	-11.7
690.56	5.4070E+5	4.5326	1.0856	-10.7
690.74	5.4080E+5	4.5382	1.0856	-11.4
690.91	5.4090E+5	4.5340	1.0904	-10.7
691.09	5.4100E+5	4.5368	1.0874	-11.7
691.27	5.4110E+5	4.5368	1.0912	-10.6
691.46	5.4120E+5	4.5311	1.0830	-11.4
691.66	5.4130E+5	4.5311	1.0843	-11.8
691.82	5.4140E+5	4.5340	1.0768	-11.3
692.00	5.4150E+5	4.5368	1.0812	-10.7
692.19	5.4160E+5	4.5340	1.0881	-9.8
692.36	5.4170E+5	4.5297	1.0789	-10.1
692.55	5.4180E+5	4.5311	1.0829	-11.5
692.74	5.4190E+5	4.5326	1.0813	-10.1
692.92	5.4200E+5	4.5326	1.0762	-10.4
693.10	5.4210E+5	4.5326	1.0806	-9.7
693.29	5.4220E+5	4.5354	1.0772	-11.4
693.49	5.4230E+5	4.5354	1.0798	-10.9
693.67	5.4240E+5	4.5354	1.0850	-9.4
693.85	5.4250E+5	4.5340	1.0725	-10.9
694.03	5.4260E+5	4.5340	1.0747	-10.2
694.22	5.4270E+5	4.5382	1.0745	-10.2
694.40	5.4280E+5	4.5354	1.0721	-11.4
694.58	5.4290E+5	4.5326	1.0725	-10.3
694.75	5.4300E+5	4.5425	1.0752	-10.7
694.95	5.4310E+5	4.5396	1.0710	-12.5
695.15	5.4320E+5	4.5368	1.0691	-11.4
695.35	5.4330E+5	4.5368	1.0674	-9.3
695.53	5.4340E+5	4.5326	1.0699	-10.9
695.72	5.4350E+5	4.5354	1.0677	-11.7
695.90	5.4360E+5	4.5368	1.0621	-11.1
696.08	5.4370E+5	4.5396	1.0658	-11.4
696.28	5.4380E+5	4.5311	1.0652	-10.4
696.45	5.4390E+5	4.5340	1.0652	-10.0
696.61	5.4400E+5	4.5297	1.0635	-10.6
696.80	5.4410E+5	4.5311	1.0666	-9.6
696.98	5.4420E+5	4.5340	1.0643	-10.1
697.18	5.4430E+5	4.5326	1.0635	-10.2
697.34	5.4440E+5	4.5326	1.0624	-11.1
697.51	5.4450E+5	4.5382	1.0595	-7.9
697.70	5.4460E+5	4.5326	1.0578	-11.4
697.88	5.4470E+5	4.5326	1.0566	-8.7
698.06	5.4480E+5	4.5311	1.0533	-9.5
698.24	5.4490E+5	4.5354	1.0614	-11.1
698.43	5.4500E+5	4.5340	1.0600	-10.8
698.59	5.4510E+5	4.5297	1.0597	-9.8
698.76	5.4520E+5	4.5396	1.0540	-9.3
698.96	5.4530E+5	4.5368	1.0563	-9.3
699.12	5.4540E+5	4.5269	1.0522	-10.5
699.29	5.4550E+5	4.5354	1.0474	-12.2
699.47	5.4560E+5	4.5382	1.0540	-12.9
699.66	5.4570E+5	4.5326	1.0522	-11.3
699.86	5.4580E+5	4.5410	1.0550	-10.8
700.06	5.4590E+5	4.5326	1.0428	-9.3
700.26	5.4600E+5	4.5453	1.0529	-10.0
700.46	5.4610E+5	4.5368	1.0512	-11.1
700.65	5.4620E+5	4.5326	1.0479	-10.4
700.84	5.4630E+5	4.5326	1.0505	-10.8
701.02	5.4640E+5	4.5354	1.0454	-12.8
701.20	5.4650E+5	4.5340	1.0445	-11.0
701.39	5.4660E+5	4.5354	1.0469	-10.0
701.59	5.4670E+5	4.5396	1.0457	-11.5
701.75	5.4680E+5	4.5340	1.0423	-11.9
701.93	5.4690E+5	4.5283	1.0392	-11.0
702.10	5.4700E+5	4.5311	1.0424	-9.4
702.27	5.4710E+5	4.5354	1.0394	-10.3
702.45	5.4720E+5	4.5354	1.0426	-9.3
702.63	5.4730E+5	4.5326	1.0392	-10.5
702.82	5.4740E+5	4.5340	1.0342	-11.8
703.00	5.4750E+5	4.5354	1.0370	-10.0
703.18	5.4760E+5	4.5368	1.0373	-10.3
703.37	5.4770E+5	4.5368	1.0358	-10.9
703.55	5.4780E+5	4.5354	1.0318	-10.4
703.73	5.4790E+5	4.5396	1.0348	-11.7
703.91	5.4800E+5	4.5340	1.0307	-11.7
704.10	5.4810E+5	4.5340	1.0239	-10.3
704.30	5.4820E+5	4.5340	1.0312	-9.8
704.48	5.4830E+5	4.5396	1.0346	-11.1
704.66	5.4840E+5	4.5326	1.0281	-10.4
704.85	5.4850E+5	4.5311	1.0266	-9.6
705.00	5.4860E+5	4.5340	1.0239	-10.4
705.20	5.4870E+5	4.5354	1.0237	-9.7
705.36	5.4880E+5	4.5340	1.0195	-10.4
705.54	5.4890E+5	4.5311	1.0250	-12.1
705.71	5.4900E+5	4.5283	1.0218	-10.1
705.89	5.4910E+5	4.5410	1.0247	-9.4
706.11	5.4920E+5	4.5368	1.0247	-12.2
706.29	5.4930E+5	4.5311	1.0243	-10.6
706.46	5.4940E+5	4.5340	1.0229	-11.4
706.63	5.4950E+5	4.5255	1.0235	-11.4
706.79	5.4960E+5	4.5382	1.0182	-10.7
706.98	5.4970E+5	4.5368	1.0228	-10.0
707.17	5.4980E+5	4.5382	1.0187	-10.3
707.36	5.4990E+5	4.5354	1.0191	-9.7
707.52	5.5000E+5	4.5354	1.0130	-10.4
707.71	5.5010E+5	4.5340	1.0153	-11.7
707.89	5.5020E+5	4.5382	1.0143	-11.1
708.07	5.5030E+5	4.5396	1.0157	-8.6
708.24	5.5040E+5	4.5396	1.0127	-9.1
708.41	5.5050E+5	4.5382	1.0174	-10.0
708.59	5.5060E+5	4.5326	1.0124	-11.1
708.77	5.5070E+5	4.5368	1.0107	-11.5
708.97	5.5080E+5	4.5340	1.0116	-10.6
709.15	5.5090E+5	4.5340	1.0078	-12.9
709.34	5.5100E+5	4.5340	1.0114	-10.0
709.52	5.5110E+5	4.5326	1.0078	-9.8
709.70	5.5120E+5	4.5354	1.0056	-10.4
709.88	5.5130E+5	4.5368	1.0069	-12.4
710.05	5.5140E+5	4.5354	1.0042	-11.7
710.23	5.5150E+5	4.5368	1.0020	-11.4
710.42	5.5160E+5	4.5311	1.0013	-11.5
710.58	5.5170E+5	4.5311	0.9982	-10.7
710.78	5.5180E+5	4.5340	0.9969	-9.3
710.97	5.5190E+5	4.5326	1.0020	-10.3
711.13	5.5200E+5	4.5326	1.0004	-11.3
711.28	5.5210E+5	4.5340	1.0001	-10.4
711.45	5.5220E+5	4.5297	1.0007	-9.3
711.63	5.5230E+5	4.5297	0.9956	-10.3
711.80	5.5240E+5	4.5297	0.9979	-9.4
711.98	5.5250E+5	4.5297	0.9984	-10.8
712.15	5.5260E+5	4.5354	0.9959	-10.3
712.31	5.5270E+5	4.5340	0.9949	-9.3
712.50	5.5280E+5	4.5425	0.9921	-10.4
712.68	5.5290E+5	4.5311	0.9925	-10.7
712.86	5.5300E+5	4.5340	0.9925	-9.8
713.03	5.5310E+5	4.5311	0.9932	-9.4
713.19	5.5320E+5	4.5354	0.9897	-9.8
713.39	5.5330E+5	4.5425	0.9875	-10.9
713.59	5.5340E+5	4.5354	0.9844	-9.6
713.79	5.5350E+5	4.5354	0.9875	-9.8
713.98	5.5360E+5	4.5326	0.9890	-9.7
714.16	5.5370E+5	4.5382	0.9878	-9.7
714.36	5.5380E+5	4.5283	0.9833	-10.8
714.54	5.5390E+5	4.5382	0.9860	-8.6
714.71	5.5400E+5	4.5382	0.9839	-8.6
714.89	5.5410E+5	4.5283	0.9789	-9.4
715.07	5.5420E+5	4.5410	0.9837	-11.1
715.29	5.5430E+5	4.5354	0.9765	-11.4
715.49	5.5440E+5	4.5311	0.9784	-9.1
715.67	5.5450E+5	4.5311	0.9796	-9.9
715.84	5.5460E+5	4.5354	0.9754	-10.1
716.02	5.5470E+5	4.5311	0.9788	-9.3
716.22	5.5480E+5	4.5269	0.9779	-9.8
716.39	5.5490E+5	4.5340	0.9799	-9.5
716.55	5.5500E+5	4.5396	0.9769	-10.7
716.72	5.5510E+5	4.5340	0.9711	-8.6
716.90	5.5520E+5	4.5340	0.9751	-10.1
717.10	5.5530E+5	4.5326	0.9776	-9.6
717.29	5.5540E+5	4.5340	0.9730	-10.1
717.47	5.5550E+5	4.5340	0.9714	-10.0
717.65	5.5560E+5	4.5326	0.9685	-10.3
717.84	5.5570E+5	4.5297	0.9680	-12.2
718.00	5.5580E+5	4.5326	0.9692	-12.1
718.20	5.5590E+5	4.5340	0.9673	-10.7
718.38	5.5600E+5	4.5354	0.9675	-11.5
718.55	5.5610E+5	4.5297	0.9641	-11.2
718.73	5.5620E+5	4.5340	0.9563	-8.3
718.91	5.5630E+5	4.5410	0.9617	-9.8
719.13	5.5640E+5	4.5269	0.9604	-10.0
719.31	5.5650E+5	4.5311	0.9624	-11.5
719.46	5.5660E+5	4.5382	0.9619	-11.4
719.63	5.5670E+5	4.5297	0.9608	-9.1
719.80	5.5680E+5	4.5382	0.9595	-11.5
720.00	5.5690E+5	4.5354	0.9597	-10.8
720.16	5.5700E+5	4.5410	0.9600	-9.1
720.35	5.5710E+5	4.5340	0.9612	-8.6
720.55	5.5720E+5	4.5311	0.9578	-10.6
720.73	5.5730E+5	4.5326	0.9586	-9.0
720.91	5.5740E+5	4.5368	0.9593	-11.8
721.08	5.5750E+5	4.5354	0.9564	-9.3
721.26	5.5760E+5	4.5382	0.9563	-8.6
721.42	5.5770E+5	4.5326	0.9532	-8.3
721.59	5.5780E+5	4.5396	0.9518	-10.0
721.77	5.5790E+5	4.5283	0.9525	-9.0
721.94	5.5800E+5	4.5283	0.9502	-10.8
722.11	5.5810E+5	4.5382	0.9547	-11.0
722.27	5.5820E+5	4.5269	0.9470	-11.6
722.44	5.5830E+5	4.5340	0.9511	-10.3
722.62	5.5840E+5	4.5326	0.9509	-10.6
722.77	5.5850E+5	4.5368	0.9487	-11.9
722.94	5.5860E+5	4.5368	0.9460	-10.2
723.11	5.5870E+5	4.5354	0.9502	-9.3
723.27	5.5880E+5	4.5410	0.9498	-10.2
723.44	5.5890E+5	4.5297	0.9501	-10.7
723.62	5.5900E+5	4.5410	0.9489	-10.8
723.80	5.5910E+5	4.5297	0.9505	-11.4
723.99	5.5920E+5	4.5326	0.9434	-11.4
724.15	5.5930E+5	4.5354	0.9437	-9.4
724.30	5.5940E+5	4.5297	0.9506	-10.8
724.49	5.5950E+5	4.5354	0.9438	-10.4
724.65	5.5960E+5	4.5269	0.9444	-10.8
724.80	5.5970E+5	4.5354	0.9407	-9.3
724.99	5.5980E+5	4.5283	0.9433	-9.0
725.13	5.5990E+5	4.5368	0.9407	-9.6
725.30	5.6000E+5	4.5340	0.9427	-8.7
725.47	5.6010E+5	4.5425	0.9430	-11.0
725.65	5.6020E+5	4.5354	0.9369	-11.1
725.85	5.6030E+5	4.5340	0.9383	-9.2
726.03	5.6040E+5	4.5340	0.9389	-12.1
726.20	5.6050E+5	4.5382	0.9397	-9.4
726.35	5.6060E+5	4.5311	0.9366	-11.1
726.53	5.6070E+5	4.5368	0.9349	-10.2
726.70	5.6080E+5	4.5410	0.9386	-9.3
726.90	5.6090E+5	4.5368	0.9361	-9.9
727.10	5.6100E+5	4.5354	0.9328	-10.5
727.30	5.6110E+5	4.5340	0.9344	-8.7
727.46	5.6120E+5	4.5326	0.9355	-8.2
727.65	5.6130E+5	4.5382	0.9347	-10.4
727.83	5.6140E+5	4.5368	0.9345	-8.9
728.00	5.6150E+5	4.5354	0.9335	-8.2
728.18	5.6160E+5	4.5326	0.9330	-10.7
728.34	5.6170E+5	4.5354	0.9303	-10.0
728.51	5.6180E+5	4.5326	0.9315	-9.8
728.68	5.6190E+5	4.5354	0.9267	-11.3
728.86	5.6200E+5	4.5340	0.9296	-9.6
729.06	5.6210E+5	4.5311	0.9298	-10.5
729.23	5.6220E+5	4.5311	0.9273	-11.0
729.41	5.6230E+5	4.5354	0.9284	-8.4
729.58	5.6240E+5	4.5354	0.9274	-11.8
729.73	5.6250E+5	4.5326	0.9260	-9.6
729.93	5.6260E+5	4.5297	0.9270	-8.2
730.11	5.6270E+5	4.5326	0.9233	-11.2
730.27	5.6280E+5	4.5297	0.9228	-7.9
730.44	5.6290E+5	4.5311	0.9216	-10.0
730.59	5.6300E+5	4.5311	0.9202	-10.2
730.77	5.6310E+5	4.5340	0.9214	-9.8
730.97	5.6320E+5	4.5269	0.9207	-10.7
731.16	5.6330E+5	4.5354	0.9219	-9.1
731.34	5.6340E+5	4.5326	0.9173	-10.2
731.51	5.6350E+5	4.5382	0.9219	-8.9
731.69	5.6360E+5	4.5311	0.9248	-10.8
731.89	5.6370E+5	4.5354	0.9175	-10.1
732.07	5.6380E+5	4.5354	0.9161	-9.1
732.24	5.6390E+5	4.5326	0.9173	-8.0
732.40	5.6400E+5	4.5326	0.9173	-9.7
732.57	5.6410E+5	4.5368	0.9191	-10.8
732.77	5.6420E+5	4.5368	0.9149	-7.9
732.95	5.6430E+5	4.5368	0.9158	-9.8
733.13	5.6440E+5	4.5326	0.9156	-11.7
733.28	5.6450E+5	4.5354	0.9125	-9.4
733.45	5.6460E+5	4.5368	0.9140	-10.7
733.62	5.6470E+5	4.5241	0.9191	-11.4
733.82	5.6480E+5	4.5354	0.9133	-9.0
734.00	5.6490E+5	4.5382	0.9105	-10.4
734.18	5.6500E+5	4.5340	0.9109	-10.8
734.35	5.6510E+5	4.5326	0.9161	-10.4
734.53	5.6520E+5	4.5269	0.9088	-8.4
734.73	5.6530E+5	4.5297	0.9092	-10.8
734.90	5.6540E+5	4.5382	0.9092	-9.7
735.06	5.6550E+5	4.5340	0.9065	-9.7
735.25	5.6560E+5	4.5283	0.9102	-10.6
735.43	5.6570E+5	4.5311	0.9064	-10.8
735.63	5.6580E+5	4.5382	0.9091	-11.1
735.81	5.6590E+5	4.5326	0.9081	-10.4
735.96	5.6600E+5	4.5255	0.9048	-9.3
736.13	5.6610E+5	4.5326	0.9038	-10.3
736.29	5.6620E+5	4.5354	0.9058	-9.3
736.44	5.6630E+5	4.5354	0.9026	-10.4
736.65	5.6640E+5	4.5368	0.9052	-9.8
736.83	5.6650E+5	4.5382	0.9033	-9.7
737.01	5.6660E+5	4.5311	0.9082	-11.4
737.18	5.6670E+5	4.5354	0.9045	-10.7
737.36	5.6680E+5	4.5326	0.8945	-10.9
737.56	5.6690E+5	4.5311	0.9000	-10.4
737.74	5.6700E+5	4.5368	0.8997	-11.0
737.91	5.6710E+5	4.5396	0.9003	-9.3
738.08	5.6720E+5	4.5326	0.9001	-7.9
738.24	5.6730E+5	4.5326	0.8966	-11.0
738.44	5.6740E+5	4.5396	0.8969	-9.4
738.61	5.6750E+5	4.5269	0.9013	-9.2
738.79	5.6760E+5	4.5297	0.8951	-12.2
738.97	5.6770E+5	4.5382	0.8962	-11.0
739.16	5.6780E+5	4.5227	0.8948	-10.0
739.34	5.6790E+5	4.5283	0.8924	-10.8
739.54	5.6800E+5	4.5311	0.8960	-9.8
739.72	5.6810E+5	4.5340	0.8921	-11.1
739.90	5.6820E+5	4.5283	0.8919	-10.4
740.07	5.6830E+5	4.5283	0.8922	-9.6
740.24	5.6840E+5	4.5368	0.8864	-11.0
740.44	5.6850E+5	4.5311	0.8946	-9.4
740.62	5.6860E+5	4.5382	0.8900	-9.6
740.80	5.6870E+5	4.5311	0.8895	-9.0
740.99	5.6880E+5	4.5368	0.8979	-10.3
741.17	5.6890E+5	4.5311	0.8904	-12.0
741.37	5.6900E+5	4.5297	0.8902	-8.6
741.53	5.6910E+5	4.5425	0.8888	-10.2
741.74	5.6920E+5	4.5354	0.8854	-9.7
741.93	5.6930E+5	4.5297	0.8830	-9.6
742.12	5.6940E+5	4.5311	0.8874	-8.2
742.30	5.6950E+5	4.5354	0.8908	-9.7
742.50	5.6960E+5	4.5311	0.8826	-12.8
742.68	5.6970E+5	4.5326	0.8863	-13.0
742.86	5.6980E+5	4.5283	0.8852	-10.1
743.03	5.6990E+5	4.5297	0.8839	-11.7
743.21	5.7000E+5	4.5340	0.8847	-9.7
743.40	5.7010E+5	4.5368	0.8796	-11.2
743.58	5.7020E+5	4.5354	0.8842	-9.3
743.76	5.7030E+5	4.5297	0.8833	-12.5
743.95	5.7040E+5	4.5340	0.8844	-9.2
744.11	5.7050E+5	4.5311	0.8801	-8.6
744.29	5.7060E+5	4.5283	0.8772	-12.0
744.50	5.7070E+5	4.5340	0.8805	-9.7
744.68	5.7080E+5	4.5326	0.8768	-8.2
744.86	5.7090E+5	4.5368	0.8795	-10.3
745.04	5.7100E+5	4.5382	0.8822	-10.0
745.23	5.7110E+5	4.5340	0.8799	-10.4
745.43	5.7120E+5	4.5326	0.8757	-11.4
745.61	5.7130E+5	4.5297	0.8782	-10.7
745.77	5.7140E+5	4.5326	0.8751	-10.6
745.94	5.7150E+5	4.5311	0.8751	-11.3
746.11	5.7160E+5	4.5311	0.8740	-7.2
746.27	5.7170E+5	4.5326	0.8754	-8.1
746.46	5.7180E+5	4.5368	0.8678	-10.5
746.64	5.7190E+5	4.5297	0.8717	-8.8
746.82	5.7200E+5	4.5396	0.8751	-10.3
747.00	5.7210E+5	4.5297	0.8702	-10.3
747.17	5.7220E+5	4.5311	0.8726	-11.8
747.36	5.7230E+5	4.5354	0.8706	-11.2
747.50	5.7240E+5	4.5410	0.8757	-8.4
747.69	5.7250E+5	4.5311	0.8730	-11.1
747.89	5.7260E+5	4.5283	0.8671	-12.1
748.07	5.7270E+5	4.5410	0.8697	-11.9
748.27	5.7280E+5	4.5340	0.8707	-10.5
748.47	5.7290E+5	4.5340	0.8654	-8.3
748.65	5.7300E+5	4.5340	0.8678	-10.3
748.82	5.7310E+5	4.5410	0.8682	-9.1
749.00	5.7320E+5	4.5439	0.8665	-11.0
749.18	5.7330E+5	4.5410	0.8695	-10.9
749.38	5.7340E+5	4.5354	0.8661	-10.8
749.58	5.7350E+5	4.5269	0.8648	-9.3
749.75	5.7360E+5	4.5368	0.8625	-10.3
749.93	5.7370E+5	4.5382	0.8655	-11.6
750.12	5.7380E+5	4.5368	0.8627	-8.7
750.32	5.7390E+5	4.5396	0.8672	-10.1
750.50	5.7400E+5	4.5340	0.8618	-9.4
750.68	5.7410E+5	4.5354	0.8607	-9.0
750.86	5.7420E+5	4.5326	0.8614	-11.9
751.05	5.7430E+5	4.5311	0.8631	-9.3
751.21	5.7440E+5	4.5241	0.8587	-9.3
751.41	5.7450E+5	4.5368	0.8620	-9.0
751.60	5.7460E+5	4.5354	0.8621	-10.5
751.76	5.7470E+5	4.5326	0.8583	-10.4
751.95	5.7480E+5	4.5311	0.8546	-9.2
752.13	5.7490E+5	4.5297	0.8573	-11.0
752.33	5.7500E+5	4.5340	0.8574	-10.7
752.49	5.7510E+5	4.5311	0.8577	-10.3
752.66	5.7520E+5	4.5283	0.8522	-10.7
752.84	5.7530E+5	4.5326	0.8514	-9.2
753.01	5.7540E+5	4.5326	0.8563	-9.7
753.19	5.7550E+5	4.5326	0.8542	-9.4
753.39	5.7560E+5	4.5311	0.8543	-10.8
753.56	5.7570E+5	4.5340	0.8548	-9.3
753.72	5.7580E+5	4.5297	0.8485	-8.9
753.89	5.7590E+5	4.5311	0.8557	-8.7
754.07	5.7600E+5	4.5368	0.8521	-10.1
754.27	5.7610E+5	4.5326	0.8536	-8.7
754.46	5.7620E+5	4.5354	0.8548	-7.9
754.62	5.7630E+5	4.5354	0.8516	-10.6
754.79	5.7640E+5	4.5311	0.8488	-10.3
754.97	5.7650E+5	4.5269	0.8492	-10.6
755.14	5.7660E+5	4.5382	0.8512	-8.3
755.34	5.7670E+5	4.5297	0.8499	-9.1
755.52	5.7680E+5	4.5354	0.8456	-9.7
755.70	5.7690E+5	4.5410	0.8516	-10.2
755.90	5.7700E+5	4.5326	0.8468	-8.9
756.10	5.7710E+5	4.5326	0.8457	-9.1
756.27	5.7720E+5	4.5297	0.8490	-8.9
756.47	5.7730E+5	4.5382	0.8463	-10.7
756.65	5.7740E+5	4.5382	0.8464	-8.9
756.82	5.7750E+5	4.5368	0.8474	-9.2
757.00	5.7760E+5	4.5269	0.8419	-10.0
757.18	5.7770E+5	4.5311	0.8451	-8.3
757.38	5.7780E+5	4.5326	0.8460	-11.0
757.55	5.7790E+5	4.5368	0.8436	-9.6
757.73	5.7800E+5	4.5311	0.8422	-9.3
757.90	5.7810E+5	4.5382	0.8441	-9.9
758.07	5.7820E+5	4.5340	0.8410	-8.3
758.23	5.7830E+5	4.5311	0.8391	-11.0
758.41	5.7840E+5	4.5340	0.8409	-7.5
758.58	5.7850E+5	4.5311	0.8391	-8.9
758.75	5.7860E+5	4.5354	0.8398	-7.8
758.91	5.7870E+5	4.5297	0.8398	-11.0
759.08	5.7880E+5	4.5340	0.8423	-10.4
759.28	5.7890E+5	4.5326	0.8334	-8.4
759.46	5.7900E+5	4.5354	0.8382	-9.3
759.65	5.7910E+5	4.5340	0.8412	-8.3
759.83	5.7920E+5	4.5283	0.8351	-9.7
760.01	5.7930E+5	4.5311	0.8318	-10.6
760.19	5.7940E+5	4.5311	0.8433	-10.4
760.39	5.7950E+5	4.5297	0.8309	-9.0
760.58	5.7960E+5	4.5297	0.8314	-9.7
760.74	5.7970E+5	4.5311	0.8335	-9.0
760.91	5.7980E+5	4.5368	0.8379	-9.3
761.09	5.7990E+5	4.5297	0.8330	-10.1
761.29	5.8000E+5	4.5311	0.8344	-8.7
761.48	5.8010E+5	4.5283	0.8331	-9.6
761.64	5.8020E+5	4.5396	0.8341	-9.3
761.81	5.8030E+5	4.5297	0.8328	-9.4
761.99	5.8040E+5	4.5425	0.8337	-8.6
762.19	5.8050E+5	4.5283	0.8331	-12.8
762.39	5.8060E+5	4.5382	0.8301	-10.9
762.56	5.8070E+5	4.5311	0.8379	-10.7
762.74	5.8080E+5	4.5340	0.8313	-10.5
762.92	5.8090E+5	4.5311	0.8297	-9.3
763.11	5.8100E+5	4.5311	0.8304	-11.3
763.27	5.8110E+5	4.5368	0.8282	-11.1
763.47	5.8120E+5	4.5354	0.8289	-8.6
763.64	5.8130E+5	4.5311	0.8297	-8.9
763.80	5.8140E+5	4.5354	0.8234	-9.1
763.99	5.8150E+5	4.5326	0.8276	-8.9
764.17	5.8160E+5	4.5297	0.8204	-9.6
764.37	5.8170E+5	4.5354	0.8260	-8.9
764.55	5.8180E+5	4.5340	0.8243	-11.1
764.74	5.8190E+5	4.5326	0.8260	-9.3
764.92	5.8200E+5	4.5340	0.8259	-11.1
765.08	5.8210E+5	4.5340	0.8238	-10.5
765.27	5.8220E+5	4.5354	0.8236	-9.7
765.45	5.8230E+5	4.5340	0.8236	-7.6
765.62	5.8240E+5	4.5368	0.8201	-8.0
765.78	5.8250E+5	4.5340	0.8215	-9.4
765.93	5.8260E+5	4.5354	0.8229	-10.5
766.11	5.8270E+5	4.5382	0.8226	-10.8
766.28	5.8280E+5	4.5311	0.8224	-8.7
766.46	5.8290E+5	4.5326	0.8208	-13.0
766.65	5.8300E+5	4.5326	0.8146	-10.8
766.83	5.8310E+5	4.5311	0.8185	-12.7
767.01	5.8320E+5	4.5340	0.8168	-11.0
767.18	5.8330E+5	4.5326	0.8190	-10.8
767.38	5.8340E+5	4.5297	0.8183	-10.7
767.55	5.8350E+5	4.5368	0.8168	-12.3
767.71	5.8360E+5	4.5311	0.8176	-9.3
767.88	5.8370E+5	4.5269	0.8154	-9.8
768.06	5.8380E+5	4.5326	0.8153	-10.3
768.23	5.8390E+5	4.5297	0.8146	-9.4
768.41	5.8400E+5	4.5382	0.8160	-9.5
768.58	5.8410E+5	4.5311	0.8116	-9.4
768.74	5.8420E+5	4.5340	0.8163	-7.5
768.92	5.8430E+5	4.5326	0.8201	-9.7
769.11	5.8440E+5	4.5354	0.8095	-9.6
769.29	5.8450E+5	4.5340	0.8146	-10.8
769.49	5.8460E+5	4.5326	0.8144	-9.3
769.66	5.8470E+5	4.5326	0.8135	-8.7
769.82	5.8480E+5	4.5311	0.8078	-9.3
770.01	5.8490E+5	4.5283	0.8099	-7.7
770.17	5.8500E+5	4.5340	0.8108	-10.1
770.37	5.8510E+5	4.5283	0.8123	-10.0
770.52	5.8520E+5	4.5311	0.8108	-8.9
770.69	5.8530E+5	4.5269	0.8126	-9.7
770.85	5.8540E+5	4.5326	0.8082	-10.1
771.02	5.8550E+5	4.5326	0.8101	-9.7
771.19	5.8560E+5	4.5340	0.8057	-8.8
771.39	5.8570E+5	4.5283	0.8084	-10.3
771.55	5.8580E+5	4.5311	0.8086	-8.0
771.72	5.8590E+5	4.5326	0.8088	-8.3
771.87	5.8600E+5	4.5340	0.8065	-9.7
772.04	5.8610E+5	4.5340	0.8027	-10.3
772.22	5.8620E+5	4.5382	0.8098	-9.7
772.42	5.8630E+5	4.5326	0.8031	-10.4
772.60	5.8640E+5	4.5311	0.8068	-9.8
772.78	5.8650E+5	4.5326	0.8028	-9.4
772.97	5.8660E+5	4.5311	0.8010	-9.1
773.15	5.8670E+5	4.5311	0.8034	-11.1
773.35	5.8680E+5	4.5368	0.8020	-12.2
773.52	5.8690E+5	4.5297	0.7999	-8.8
773.70	5.8700E+5	4.5311	0.8002	-10.8
773.85	5.8710E+5	4.5340	0.8040	-10.2
774.01	5.8720E+5	4.5326	0.7992	-9.0
774.18	5.8730E+5	4.5340	0.7997	-8.7
774.36	5.8740E+5	4.5326	0.8010	-9.5
774.53	5.8750E+5	4.5297	0.8036	-9.4
774.71	5.8760E+5	4.5311	0.7986	-8.4
774.90	5.8770E+5	4.5297	0.7982	-8.9
775.06	5.8780E+5	4.5354	0.8013	-8.5
775.25	5.8790E+5	4.5283	0.7929	-9.0
775.45	5.8800E+5	4.5241	0.8000	-10.1
775.63	5.8810E+5	4.5368	0.7958	-10.3
775.81	5.8820E+5	4.5354	0.7979	-10.3
775.99	5.8830E+5	4.5283	0.7910	-9.6
776.18	5.8840E+5	4.5326	0.7986	-9.4
776.36	5.8850E+5	4.5326	0.7955	-9.7
776.56	5.8860E+5	4.5283	0.7932	-9.4
776.74	5.8870E+5	4.5340	0.7952	-10.4
776.92	5.8880E+5	4.5311	0.8010	-9.9
777.11	5.8890E+5	4.5340	0.7945	-7.0
777.29	5.8900E+5	4.5326	0.7983	-8.3
777.48	5.8910E+5	4.5297	0.7917	-10.1
777.67	5.8920E+5	4.5283	0.7928	-9.7
777.84	5.8930E+5	4.5297	0.7904	-11.0
778.01	5.8940E+5	4.5354	0.7903	-8.3
778.17	5.8950E+5	4.5326	0.7872	-10.3
778.36	5.8960E+5	4.5255	0.7862	-8.3
778.54	5.8970E+5	4.5326	0.7905	-10.4
778.72	5.8980E+5	4.5297	0.7890	-8.4
778.89	5.8990E+5	4.5311	0.7893	-10.2
779.04	5.9000E+5	4.5340	0.7910	-7.7
779.21	5.9010E+5	4.5311	0.7859	-8.6
779.39	5.9020E+5	4.5311	0.7881	-7.0
779.59	5.9030E+5	4.5297	0.7920	-9.1
779.77	5.9040E+5	4.5326	0.7888	-12.5
779.94	5.9050E+5	4.5354	0.7836	-9.0
780.12	5.9060E+5	4.5283	0.7873	-10.6
780.30	5.9070E+5	4.5340	0.7870	-9.2
780.47	5.9080E+5	4.5283	0.7859	-8.0
780.65	5.9090E+5	4.5297	0.7811	-8.7
780.83	5.9100E+5	4.5382	0.7863	-7.6
781.02	5.9110E+5	4.5297	0.7831	-10.8
781.20	5.9120E+5	4.5311	0.7816	-10.3
781.37	5.9130E+5	4.5340	0.7829	-9.5
781.55	5.9140E+5	4.5340	0.7857	-9.4
781.75	5.9150E+5	4.5297	0.7819	-9.2
781.93	5.9160E+5	4.5269	0.7809	-9.3
782.10	5.9170E+5	4.5297	0.7771	-8.3
782.26	5.9180E+5	4.5340	0.7795	-8.9
782.45	5.9190E+5	4.5410	0.7789	-10.3
782.65	5.9200E+5	4.5326	0.7750	-11.4
782.86	5.9210E+5	4.5311	0.7799	-11.2
783.05	5.9220E+5	4.5354	0.7760	-9.1
783.23	5.9230E+5	4.5311	0.7794	-10.3
783.41	5.9240E+5	4.5255	0.7768	-10.1
783.59	5.9250E+5	4.5297	0.7771	-7.6
783.78	5.9260E+5	4.5311	0.7787	-7.0
783.94	5.9270E+5	4.5340	0.7773	-10.8
784.11	5.9280E+5	4.5311	0.7778	-8.9
784.28	5.9290E+5	4.5410	0.7751	-9.2
784.48	5.9300E+5	4.5283	0.7710	-10.3
784.68	5.9310E+5	4.5283	0.7743	-9.9
784.88	5.9320E+5	4.5311	0.7726	-8.4
785.06	5.9330E+5	4.5255	0.7732	-10.5
785.23	5.9340E+5	4.5241	0.7700	-9.8
785.41	5.9350E+5	4.5269	0.7747	-8.3
785.59	5.9360E+5	4.5311	0.7741	-10.0
785.76	5.9370E+5	4.5311	0.7679	-8.8
785.96	5.9380E+5	4.5326	0.7657	-10.6
786.12	5.9390E+5	4.5311	0.7719	-10.4
786.29	5.9400E+5	4.5340	0.7707	-7.6
786.47	5.9410E+5	4.5340	0.7700	-8.0
786.64	5.9420E+5	4.5354	0.7676	-8.7
786.82	5.9430E+5	4.5340	0.7686	-8.3
787.02	5.9440E+5	4.5283	0.7688	-9.9
787.19	5.9450E+5	4.5326	0.7700	-10.1
787.35	5.9460E+5	4.5354	0.7661	-9.9
787.52	5.9470E+5	4.5368	0.7651	-7.7
787.70	5.9480E+5	4.5368	0.7642	-10.0
787.87	5.9490E+5	4.5326	0.7628	-10.6
788.05	5.9500E+5	4.5283	0.7672	-8.7
788.24	5.9510E+5	4.5326	0.7651	-9.2
788.42	5.9520E+5	4.5311	0.7649	-7.6
788.58	5.9530E+5	4.5297	0.7638	-10.7
788.73	5.9540E+5	4.5326	0.7575	-8.4
788.90	5.9550E+5	4.5311	0.7640	-10.0
789.10	5.9560E+5	4.5354	0.7647	-11.3
789.27	5.9570E+5	4.5311	0.7599	-10.8
789.45	5.9580E+5	4.5283	0.7582	-8.7
789.63	5.9590E+5	4.5297	0.7617	-9.0
789.82	5.9600E+5	4.5354	0.7579	-9.3
790.00	5.9610E+5	4.5212	0.7586	-7.6
790.18	5.9620E+5	4.5255	0.7579	-8.3
790.35	5.9630E+5	4.5297	0.7600	-8.6
790.53	5.9640E+5	4.5326	0.7599	-9.6
790.70	5.9650E+5	4.5326	0.7624	-9.9
790.88	5.9660E+5	4.5297	0.7590	-8.4
791.06	5.9670E+5	4.5340	0.7543	-8.4
791.26	5.9680E+5	4.5311	0.7577	-8.3
791.45	5.9690E+5	4.5297	0.7549	-8.7
791.63	5.9700E+5	4.5326	0.7591	-7.5
791.81	5.9710E+5	4.5354	0.7552	-8.0
791.99	5.9720E+5	4.5326	0.7548	-11.7
792.14	5.9730E+5	4.5326	0.7539	-8.6
792.33	5.9740E+5	4.5283	0.7560	-8.0
792.49	5.9750E+5	4.5326	0.7532	-9.8
792.68	5.9760E+5	4.5283	0.7556	-7.9
792.86	5.9770E+5	4.5326	0.7550	-7.7
793.02	5.9780E+5	4.5368	0.7529	-9.4
793.19	5.9790E+5	4.5283	0.7508	-10.5
793.39	5.9800E+5	4.5255	0.7512	-10.0
793.57	5.9810E+5	4.5269	0.7497	-8.1
793.76	5.9820E+5	4.5283	0.7464	-9.9
793.94	5.9830E+5	4.5340	0.7487	-9.3
794.12	5.9840E+5	4.5297	0.7498	-8.7
794.29	5.9850E+5	4.5311	0.7508	-9.7
794.47	5.9860E+5	4.5297	0.7483	-8.1
794.64	5.9870E+5	4.5340	0.7498	-8.6
794.80	5.9880E+5	4.5326	0.7453	-10.1
794.99	5.9890E+5	4.5326	0.7460	-10.5
795.17	5.9900E+5	4.5283	0.7460	-9.2
795.34	5.9910E+5	4.5283	0.7481	-9.3
795.50	5.9920E+5	4.5326	0.7415	-11.1
795.68	5.9930E+5	4.5269	0.7461	-7.5
795.87	5.9940E+5	4.5340	0.7467	-10.3
796.03	5.9950E+5	4.5326	0.7444	-9.8
796.22	5.9960E+5	4.5283	0.7446	-8.7
796.38	5.9970E+5	4.5297	0.7418	-8.6
796.58	5.9980E+5	4.5354	0.7451	-8.4
796.77	5.9990E+5	4.5283	0.7451	-8.6
796.93	6.0000E+5	4.5354	0.7468	-10.1
