#date: 15.10.2020	time: 13:54:26
#t (s)	f (Hz)	A1 (V)	A2 (V)	phase (deg)
22.11	1.0000E+1	1.5247	Inf	+Inf
22.36	5.1000E+2	2.3697	0.0254	+127.2
22.59	1.0100E+3	2.3726	Inf	+120.6
22.80	1.5100E+3	2.3883	Inf	+Inf
23.00	2.0100E+3	2.4097	Inf	+Inf
23.31	2.5100E+3	2.4330	0.0923	+144.6
23.55	3.0100E+3	2.4580	0.1032	+152.7
23.77	3.5100E+3	2.4865	0.1103	+154.7
23.99	4.0100E+3	2.5142	0.1169	+158.5
24.20	4.5100E+3	2.5436	0.1218	+163.4
24.42	5.0100E+3	2.5739	0.1266	+170.7
24.63	5.5100E+3	2.6037	0.1300	+176.1
24.85	6.0100E+3	2.6360	0.1331	+178.0
25.07	6.5100E+3	2.6652	0.1355	+179.8
25.28	7.0100E+3	2.6985	0.1374	-176.6
25.50	7.5100E+3	2.7348	0.1395	-173.1
25.71	8.0100E+3	2.7717	0.1395	-169.3
25.91	8.5100E+3	2.8086	0.1406	-164.5
26.11	9.0100E+3	2.8495	0.1423	-164.7
26.33	9.5100E+3	2.8894	0.1411	-162.9
26.57	1.0010E+4	2.9264	0.1414	-163.5
26.77	1.0510E+4	2.9629	0.1423	-154.5
27.00	1.1010E+4	3.0010	0.1415	-156.9
27.21	1.1510E+4	3.0360	0.1416	-150.9
27.43	1.2010E+4	3.0663	0.1402	-153.2
27.65	1.2510E+4	3.0978	0.1399	-149.7
27.86	1.3010E+4	3.1265	0.1398	-151.9
28.06	1.3510E+4	3.1586	0.1389	-147.9
28.30	1.4010E+4	3.1926	0.1374	-147.4
28.51	1.4510E+4	3.2281	0.1363	-146.3
28.74	1.5010E+4	3.2588	0.1355	-141.9
28.94	1.5510E+4	3.2889	0.1342	-141.6
29.18	1.6010E+4	3.3209	0.1333	-142.7
29.39	1.6510E+4	3.3474	0.1323	-138.3
29.61	1.7010E+4	3.3781	0.1313	-140.7
29.84	1.7510E+4	3.4033	0.1297	-132.7
30.07	1.8010E+4	3.4247	0.1284	-139.9
30.29	1.8510E+4	3.4476	0.1275	-136.9
30.51	1.9010E+4	3.4695	0.1252	-137.1
30.74	1.9510E+4	3.4955	0.1245	-131.4
30.96	2.0010E+4	3.5208	0.1238	-132.0
31.14	2.0510E+4	3.5524	0.1229	-124.7
31.36	2.1010E+4	3.5758	0.1209	-131.0
31.55	2.1510E+4	3.5987	0.1203	-132.1
31.75	2.2010E+4	3.6263	0.1191	-130.8
31.97	2.2510E+4	3.6501	0.1176	-129.0
32.19	2.3010E+4	3.6688	0.1162	-128.6
32.40	2.3510E+4	3.6900	0.1150	-128.7
32.62	2.4010E+4	3.7055	0.1143	-121.8
32.84	2.4510E+4	3.7266	0.1132	-127.5
33.07	2.5010E+4	3.7458	0.1126	-122.3
33.23	2.5510E+4	3.7652	0.1124	-129.5
33.45	2.6010E+4	3.7823	0.1102	-127.0
33.68	2.6510E+4	3.7966	0.1092	-122.3
33.88	2.7010E+4	3.8134	0.1076	-123.5
34.12	2.7510E+4	3.8311	0.1066	-123.8
34.32	2.8010E+4	3.8503	0.1059	-113.6
34.52	2.8510E+4	3.8614	0.1044	-123.0
34.75	2.9010E+4	3.8805	0.1032	-125.2
34.95	2.9510E+4	3.8960	0.1025	-118.3
35.18	3.0010E+4	3.9099	0.1014	-123.3
35.36	3.0510E+4	3.9249	0.1001	-114.1
35.60	3.1010E+4	3.9377	0.0995	-116.9
35.81	3.1510E+4	3.9513	0.0985	-114.4
36.03	3.2010E+4	3.9655	0.0986	-120.8
36.21	3.2510E+4	3.9756	0.0963	-117.2
36.44	3.3010E+4	3.9902	0.0961	-124.6
36.63	3.3510E+4	4.0045	0.0950	-114.0
36.86	3.4010E+4	4.0152	0.0938	-117.0
37.06	3.4510E+4	4.0264	0.0935	-117.9
37.24	3.5010E+4	4.0357	0.0928	-122.3
37.46	3.5510E+4	4.0531	0.0918	-119.5
37.67	3.6010E+4	4.0625	0.0912	-112.1
37.91	3.6510E+4	4.0715	0.0898	-116.3
38.12	3.7010E+4	4.0830	0.0890	-115.5
38.31	3.7510E+4	4.0919	0.0880	-114.5
38.52	3.8010E+4	4.1049	0.0870	-115.4
38.72	3.8510E+4	4.1103	0.0856	-116.5
38.91	3.9010E+4	4.1229	0.0851	-117.7
39.14	3.9510E+4	4.1335	0.0837	-115.1
39.34	4.0010E+4	4.1442	0.0837	-117.0
39.54	4.0510E+4	4.1503	0.0829	-107.9
39.72	4.1010E+4	4.1571	0.0819	-109.9
39.94	4.1510E+4	4.1619	0.0816	-105.5
40.12	4.2010E+4	4.1726	0.0809	-110.7
40.35	4.2510E+4	4.1832	0.0800	-112.8
40.54	4.3010E+4	4.1872	0.0797	-112.0
40.73	4.3510E+4	4.1936	0.0788	-114.6
40.92	4.4010E+4	4.1988	0.0783	-112.8
41.13	4.4510E+4	4.2074	0.0770	-106.3
41.37	4.5010E+4	4.2149	0.0771	-118.3
41.57	4.5510E+4	4.2185	0.0759	-108.3
41.78	4.6010E+4	4.2250	0.0757	-106.4
41.97	4.6510E+4	4.2323	0.0747	-112.9
42.20	4.7010E+4	4.2364	0.0749	-108.6
42.38	4.7510E+4	4.2422	0.0751	-104.3
42.56	4.8010E+4	4.2426	0.0732	-119.3
42.78	4.8510E+4	4.2508	0.0738	-102.6
42.96	4.9010E+4	4.2558	0.0729	-113.8
43.15	4.9510E+4	4.2581	0.0730	-101.0
43.36	5.0010E+4	4.2656	0.0707	-107.5
43.56	5.0510E+4	4.2682	0.0704	-109.7
43.75	5.1010E+4	4.2730	0.0696	-107.9
43.95	5.1510E+4	4.2791	0.0694	-118.1
44.13	5.2010E+4	4.2865	0.0690	-113.8
44.34	5.2510E+4	4.2856	0.0693	-116.2
44.53	5.3010E+4	4.2933	0.0671	-106.1
44.73	5.3510E+4	4.2941	0.0676	-113.2
44.94	5.4010E+4	4.3033	0.0664	-108.3
45.14	5.4510E+4	4.3030	0.0671	-106.2
45.33	5.5010E+4	4.3073	0.0661	-112.4
45.51	5.5510E+4	4.3111	0.0652	-110.9
45.71	5.6010E+4	4.3143	0.0652	-110.2
45.92	5.6510E+4	4.3152	0.0653	-112.4
46.11	5.7010E+4	4.3213	0.0642	-104.8
46.33	5.7510E+4	4.3251	0.0653	-84.6
46.52	5.8010E+4	4.3289	0.0636	-112.3
46.74	5.8510E+4	4.3303	0.0635	-106.4
46.92	5.9010E+4	4.3344	0.0626	-112.8
47.12	5.9510E+4	4.3361	0.0615	-106.1
47.30	6.0010E+4	4.3425	0.0610	-105.5
47.52	6.0510E+4	4.3408	0.0612	-106.8
47.74	6.1010E+4	4.3510	0.0611	-102.0
47.94	6.1510E+4	4.3452	0.0601	-111.4
48.14	6.2010E+4	4.3522	0.0598	-111.1
48.32	6.2510E+4	4.3520	0.0596	-113.5
48.50	6.3010E+4	4.3590	0.0590	-100.8
48.69	6.3510E+4	4.3571	0.0587	-99.7
48.87	6.4010E+4	4.3609	0.0573	-106.6
49.07	6.4510E+4	4.3634	0.0576	-111.2
49.28	6.5010E+4	4.3648	0.0577	-106.5
49.47	6.5510E+4	4.3692	0.0563	-101.9
49.67	6.6010E+4	4.3674	0.0559	-99.6
49.88	6.6510E+4	4.3716	0.0558	-98.0
50.08	6.7010E+4	4.3736	0.0556	-110.4
50.28	6.7510E+4	4.3771	0.0556	-108.6
50.47	6.8010E+4	4.3768	0.0557	-106.0
50.65	6.8510E+4	4.3824	0.0547	-104.4
50.83	6.9010E+4	4.3832	0.0546	-115.2
51.01	6.9510E+4	4.3836	0.0546	-98.6
51.20	7.0010E+4	4.3920	0.0537	-103.6
51.40	7.0510E+4	4.3899	0.0535	-98.6
51.58	7.1010E+4	4.3950	0.0536	-110.7
51.76	7.1510E+4	4.3930	0.0525	-102.6
51.98	7.2010E+4	4.3958	0.0533	-115.4
52.18	7.2510E+4	4.3974	0.0520	-99.1
52.40	7.3010E+4	4.4043	0.0520	-104.8
52.59	7.3510E+4	4.3951	0.0518	-104.2
52.79	7.4010E+4	4.4020	0.0514	-99.2
53.03	7.4510E+4	4.3965	0.0521	-104.7
53.26	7.5010E+4	4.4087	0.0509	-98.0
53.49	7.5510E+4	4.4049	0.0515	-111.9
53.67	7.6010E+4	4.4075	0.0519	-97.0
53.87	7.6510E+4	4.4075	0.0499	-98.1
54.07	7.7010E+4	4.4112	0.0531	-78.5
54.27	7.7510E+4	4.4118	0.0504	-108.1
54.47	7.8010E+4	4.4131	0.0493	-99.1
54.69	7.8510E+4	4.4153	0.0499	-106.2
54.87	7.9010E+4	4.4140	0.0540	-113.0
55.07	7.9510E+4	4.4204	0.0486	+248.6
55.27	8.0010E+4	4.4234	0.0482	-101.1
55.45	8.0510E+4	4.4234	0.0490	-97.8
55.67	8.1010E+4	4.4256	0.0479	-90.6
55.87	8.1510E+4	4.4234	0.0481	-107.4
56.05	8.2010E+4	4.4255	0.0482	-100.4
56.23	8.2510E+4	4.4232	0.0486	-93.9
56.42	8.3010E+4	4.4296	0.0469	-116.0
56.65	8.3510E+4	4.4272	0.0468	-103.4
56.84	8.4010E+4	4.4278	0.0470	-95.3
57.02	8.4510E+4	4.4269	0.0458	-105.4
57.23	8.5010E+4	4.4338	0.0460	-100.5
57.42	8.5510E+4	4.4314	0.0482	-95.9
57.63	8.6010E+4	4.4330	0.0463	-114.1
57.83	8.6510E+4	4.4357	0.0449	-104.0
58.03	8.7010E+4	4.4344	0.0463	-111.2
58.25	8.7510E+4	4.4368	0.0448	-104.9
58.47	8.8010E+4	4.4375	0.0450	-106.6
58.65	8.8510E+4	4.4378	0.0455	-94.1
58.83	8.9010E+4	4.4408	0.0452	-112.7
59.01	8.9510E+4	4.4437	0.0457	-87.7
59.20	9.0010E+4	4.4446	0.0434	-101.1
59.40	9.0510E+4	4.4436	0.0445	-100.6
59.58	9.1010E+4	4.4433	0.0432	-106.3
59.76	9.1510E+4	4.4460	0.0430	-102.9
59.96	9.2010E+4	4.4467	0.0424	-104.9
60.14	9.2510E+4	4.4470	0.0438	-111.7
60.36	9.3010E+4	4.4515	0.0422	-106.0
60.56	9.3510E+4	4.4502	0.0430	-95.4
60.74	9.4010E+4	4.4477	0.0425	+256.7
60.93	9.4510E+4	4.4518	0.0423	-112.2
61.11	9.5010E+4	4.4529	0.0430	-109.1
61.29	9.5510E+4	4.4542	0.0413	-104.0
61.49	9.6010E+4	4.4553	0.0413	-102.1
61.69	9.6510E+4	4.4535	0.0424	-102.0
61.92	9.7010E+4	4.4573	0.0407	-97.5
62.16	9.7510E+4	4.4566	0.0407	-100.1
62.34	9.8010E+4	4.4551	0.0414	-89.4
62.52	9.8510E+4	4.4532	0.0404	-104.8
62.72	9.9010E+4	4.4627	0.0405	-103.6
62.92	9.9510E+4	4.4593	0.0416	-102.0
63.11	1.0001E+5	4.4607	0.0408	-87.2
63.29	1.0051E+5	4.4587	0.0398	-103.3
63.49	1.0101E+5	4.4627	0.0407	-95.8
63.69	1.0151E+5	4.4628	0.0416	-87.3
63.87	1.0201E+5	4.4628	0.0411	-94.4
64.05	1.0251E+5	4.4621	0.0397	-92.1
64.25	1.0301E+5	4.4621	0.0402	-94.7
64.44	1.0351E+5	4.4669	0.0408	-108.7
64.64	1.0401E+5	4.4668	0.0390	-102.9
64.83	1.0451E+5	4.4611	0.0416	-79.3
65.03	1.0501E+5	4.4675	0.0383	-99.6
65.23	1.0551E+5	4.4686	0.0394	-103.5
65.45	1.0601E+5	4.4667	0.0383	-97.6
65.65	1.0651E+5	4.4723	0.0379	-95.3
65.83	1.0701E+5	4.4689	0.0383	-95.8
66.02	1.0751E+5	4.4700	0.0383	-92.3
66.20	1.0801E+5	4.4723	0.0387	-88.5
66.38	1.0851E+5	4.4722	0.0389	-106.0
66.56	1.0901E+5	4.4725	0.0387	-99.7
66.75	1.0951E+5	4.4736	0.0382	+254.4
66.93	1.1001E+5	4.4727	0.0392	-100.7
67.13	1.1051E+5	4.4760	0.0381	-109.2
67.34	1.1101E+5	4.4767	0.0374	-89.1
67.56	1.1151E+5	4.4754	0.0369	-99.9
67.75	1.1201E+5	4.4811	0.0382	-90.7
67.94	1.1251E+5	4.4782	0.0365	-100.9
68.14	1.1301E+5	4.4795	0.0395	-99.3
68.34	1.1351E+5	4.4797	0.0364	-103.4
68.54	1.1401E+5	4.4799	0.0363	-105.7
68.73	1.1451E+5	4.4790	0.0363	-107.4
68.91	1.1501E+5	4.4819	0.0359	-102.7
69.11	1.1551E+5	4.4823	0.0355	-94.9
69.29	1.1601E+5	4.4860	0.0366	-89.7
69.51	1.1651E+5	4.4814	0.0356	-101.1
69.72	1.1701E+5	4.4850	0.0363	-99.4
69.94	1.1751E+5	4.4809	0.0372	-117.2
70.16	1.1801E+5	4.4849	0.0361	-93.0
70.36	1.1851E+5	4.4823	0.0349	-103.9
70.59	1.1901E+5	4.4869	0.0357	-92.3
70.79	1.1951E+5	4.4805	0.0392	-109.8
71.02	1.2001E+5	4.4890	0.0347	-94.4
71.24	1.2051E+5	4.4866	0.0347	-105.0
71.42	1.2101E+5	4.4853	0.0346	-104.2
71.64	1.2151E+5	4.4866	0.0351	-110.9
71.84	1.2201E+5	4.4887	0.0349	-106.3
72.02	1.2251E+5	4.4846	0.0353	-135.4
72.20	1.2301E+5	4.4846	0.0357	-107.0
72.38	1.2351E+5	4.4900	0.0333	-93.0
72.58	1.2401E+5	4.4852	0.0355	-97.6
72.78	1.2451E+5	4.4907	0.0338	-95.6
72.98	1.2501E+5	4.4896	0.0349	-109.1
73.18	1.2551E+5	4.4880	0.0360	-82.3
73.37	1.2601E+5	4.4900	0.0341	-110.2
73.58	1.2651E+5	4.4911	0.0335	-99.3
73.77	1.2701E+5	4.4913	0.0334	-115.3
73.95	1.2751E+5	4.4889	0.0341	-92.0
74.13	1.2801E+5	4.4865	0.0328	-81.1
74.33	1.2851E+5	4.4910	0.0344	-108.1
74.53	1.2901E+5	4.4921	0.0336	-81.5
74.71	1.2951E+5	4.4934	0.0328	-96.0
74.91	1.3001E+5	4.4952	0.0330	-110.6
75.10	1.3051E+5	4.4948	0.0331	-105.2
75.28	1.3101E+5	4.4894	0.0324	-114.7
75.46	1.3151E+5	4.4975	0.0351	+256.0
75.66	1.3201E+5	4.4939	0.0326	-100.9
75.86	1.3251E+5	4.4948	0.0331	-109.5
76.04	1.3301E+5	4.4968	0.0330	-118.5
76.23	1.3351E+5	4.4983	0.0315	-89.5
76.44	1.3401E+5	4.4980	0.0321	-108.5
76.64	1.3451E+5	4.4985	0.0322	-108.8
76.83	1.3501E+5	4.4986	0.0326	-104.4
77.03	1.3551E+5	4.4978	0.0357	+303.8
77.24	1.3601E+5	4.5026	0.0330	-86.5
77.44	1.3651E+5	4.4989	0.0349	-83.8
77.64	1.3701E+5	4.5046	0.0325	-121.0
77.86	1.3751E+5	4.5013	0.0336	-108.3
78.06	1.3801E+5	4.5031	0.0313	-96.0
78.26	1.3851E+5	4.5003	0.0325	-95.0
78.46	1.3901E+5	4.5016	0.0331	-91.8
78.64	1.3951E+5	4.5023	0.0320	-117.8
78.82	1.4001E+5	4.5037	0.0319	-90.0
79.00	1.4051E+5	4.5088	0.0321	-94.1
79.19	1.4101E+5	4.5033	0.0318	-109.4
79.37	1.4151E+5	4.5037	0.0317	-103.3
79.59	1.4201E+5	4.5061	0.0315	-94.0
79.77	1.4251E+5	4.5033	0.0317	-114.7
79.95	1.4301E+5	4.5050	0.0309	-101.0
80.13	1.4351E+5	4.5057	0.0324	-85.1
80.33	1.4401E+5	4.5072	0.0337	-76.6
80.53	1.4451E+5	4.5047	0.0300	-103.0
80.75	1.4501E+5	4.5091	0.0311	-90.1
80.97	1.4551E+5	4.5067	0.0329	-75.5
81.17	1.4601E+5	4.5087	0.0323	-117.5
81.35	1.4651E+5	4.5061	0.0306	-99.6
81.57	1.4701E+5	4.5074	0.0327	+241.6
81.76	1.4751E+5	4.5060	0.0324	-114.7
81.95	1.4801E+5	4.5088	0.0304	-92.4
82.15	1.4851E+5	4.5105	0.0321	-83.1
82.35	1.4901E+5	4.5120	0.0302	-103.7
82.58	1.4951E+5	4.5156	0.0307	-110.1
82.78	1.5001E+5	4.5099	0.0302	-95.9
83.01	1.5051E+5	4.5129	0.0345	-74.2
83.23	1.5101E+5	4.5099	0.0341	-119.0
83.43	1.5151E+5	4.5068	0.0307	-93.1
83.63	1.5201E+5	4.5071	0.0296	-106.4
83.83	1.5251E+5	4.5091	0.0315	-41.3
84.03	1.5301E+5	4.5094	Inf	-472.6
84.21	1.5351E+5	4.5128	0.0297	-110.6
84.44	1.5401E+5	4.5128	0.0313	-115.2
84.66	1.5451E+5	4.5085	Inf	-117.9
84.86	1.5501E+5	4.5128	0.0295	-105.8
85.09	1.5551E+5	4.5156	0.0295	-120.5
85.27	1.5601E+5	4.5128	0.0318	+248.9
85.47	1.5651E+5	4.5184	0.0300	-118.3
85.67	1.5701E+5	4.5128	0.0321	-98.3
85.87	1.5751E+5	4.5128	0.0334	-87.0
86.07	1.5801E+5	4.5184	0.0291	-108.0
86.27	1.5851E+5	4.5156	0.0288	-114.6
86.47	1.5901E+5	4.5142	0.0289	-105.5
86.65	1.5951E+5	4.5156	0.0285	-114.4
86.84	1.6001E+5	4.5128	Inf	-69.8
87.02	1.6051E+5	4.5142	0.0340	-82.4
87.24	1.6101E+5	4.5142	0.0289	-104.1
87.44	1.6151E+5	4.5184	0.0289	-113.1
87.62	1.6201E+5	4.5198	0.0285	-101.3
87.80	1.6251E+5	4.5128	0.0285	-117.5
87.98	1.6301E+5	4.5184	0.0304	+273.6
88.19	1.6351E+5	4.5156	0.0314	-78.1
88.37	1.6401E+5	4.5170	0.0323	-94.9
88.57	1.6451E+5	4.5198	0.0296	+266.9
88.77	1.6501E+5	4.5170	0.0287	+265.8
88.97	1.6551E+5	4.5170	0.0309	-112.9
89.18	1.6601E+5	4.5184	0.0285	-102.6
89.38	1.6651E+5	4.5198	0.0290	+244.4
89.58	1.6701E+5	4.5184	0.0286	+272.5
89.78	1.6751E+5	4.5170	0.0298	-89.3
89.98	1.6801E+5	4.5212	0.0278	-102.8
90.20	1.6851E+5	4.5184	0.0292	+274.0
90.40	1.6901E+5	4.5212	0.0309	-138.4
90.60	1.6951E+5	4.5170	Inf	-81.3
90.78	1.7001E+5	4.5212	0.0295	+240.4
90.98	1.7051E+5	4.5212	0.0301	+233.6
91.16	1.7101E+5	4.5198	0.0290	+267.6
91.34	1.7151E+5	4.5212	0.0287	+273.4
91.54	1.7201E+5	4.5184	0.0331	-124.1
91.76	1.7251E+5	4.5184	0.0307	-153.9
91.96	1.7301E+5	4.5241	0.0284	-92.8
92.16	1.7351E+5	4.5184	Inf	-105.1
92.34	1.7401E+5	4.5198	0.0275	-100.7
92.54	1.7451E+5	4.5227	Inf	+258.3
92.72	1.7501E+5	4.5212	Inf	-80.0
92.91	1.7551E+5	4.5227	0.0276	-102.4
93.11	1.7601E+5	4.5227	Inf	-86.3
93.29	1.7651E+5	4.5241	0.0276	-92.9
93.49	1.7701E+5	4.5227	0.0306	-76.3
93.69	1.7751E+5	4.5227	Inf	+220.7
93.87	1.7801E+5	4.5227	0.0298	+264.6
94.07	1.7851E+5	4.5255	0.0315	+277.1
94.27	1.7901E+5	4.5241	Inf	-68.0
94.45	1.7951E+5	4.5255	0.0285	-96.9
94.65	1.8001E+5	4.5212	0.0289	-126.9
94.84	1.8051E+5	4.5241	Inf	-102.2
95.02	1.8101E+5	4.5269	Inf	+232.5
95.20	1.8151E+5	4.5241	0.0274	+257.0
95.40	1.8201E+5	4.5269	0.0276	-108.5
95.58	1.8251E+5	4.5241	0.0267	-101.5
95.77	1.8301E+5	4.5227	0.0278	-113.8
95.97	1.8351E+5	4.5283	0.0280	-90.9
96.15	1.8401E+5	4.5227	0.0273	+248.3
96.35	1.8451E+5	4.5269	Inf	+272.6
96.55	1.8501E+5	4.5255	0.0309	-81.9
96.75	1.8551E+5	4.5269	Inf	-135.9
96.93	1.8601E+5	4.5283	Inf	+286.1
97.11	1.8651E+5	4.5269	0.0268	-106.5
97.31	1.8701E+5	4.5227	Inf	+Inf
97.50	1.8751E+5	4.5255	0.0275	-107.8
97.68	1.8801E+5	4.5283	0.0285	+270.8
97.88	1.8851E+5	4.5241	Inf	+Inf
98.06	1.8901E+5	4.5255	0.0294	-121.5
98.26	1.8951E+5	4.5255	0.0283	-147.0
98.46	1.9001E+5	4.5283	Inf	+Inf
98.65	1.9051E+5	4.5283	Inf	-122.3
98.83	1.9101E+5	4.5269	0.0278	-130.8
99.01	1.9151E+5	4.5283	0.0288	-122.8
99.19	1.9201E+5	4.5368	Inf	-117.9
99.38	1.9251E+5	4.5283	Inf	+Inf
99.56	1.9301E+5	4.5297	Inf	+289.4
99.74	1.9351E+5	4.5269	0.0264	-106.0
99.94	1.9401E+5	4.5283	Inf	+Inf
100.12	1.9451E+5	4.5283	Inf	+Inf
100.31	1.9501E+5	4.5311	Inf	-79.7
100.49	1.9551E+5	4.5326	Inf	+216.4
100.67	1.9601E+5	4.5297	Inf	-138.8
100.86	1.9651E+5	4.5297	0.0275	-104.0
101.04	1.9701E+5	4.5297	0.0270	-105.9
101.22	1.9751E+5	4.5297	Inf	-96.3
101.41	1.9801E+5	4.5283	Inf	+283.7
101.59	1.9851E+5	4.5326	0.0280	-105.6
101.79	1.9901E+5	4.5283	0.0268	-100.4
101.99	1.9951E+5	4.5297	Inf	+Inf
102.17	2.0001E+5	4.5311	Inf	+276.4
102.35	2.0051E+5	4.5326	Inf	+214.8
102.52	2.0101E+5	4.5340	Inf	+Inf
102.70	2.0151E+5	4.5297	0.0279	-97.9
102.90	2.0201E+5	4.5283	0.0278	-89.2
103.09	2.0251E+5	4.5297	0.0264	-116.5
103.29	2.0301E+5	4.5311	0.0264	-113.4
103.47	2.0351E+5	4.5326	0.0286	-125.7
103.67	2.0401E+5	4.5340	Inf	+Inf
103.85	2.0451E+5	4.5311	0.0266	-119.6
104.05	2.0501E+5	4.5354	Inf	+Inf
104.23	2.0551E+5	4.5311	Inf	-85.4
104.42	2.0601E+5	4.5326	0.0268	-98.3
104.60	2.0651E+5	4.5311	0.0328	-76.8
104.80	2.0701E+5	4.5340	Inf	-95.0
104.98	2.0751E+5	4.5368	Inf	+Inf
105.17	2.0801E+5	4.5326	0.0273	-105.1
105.38	2.0851E+5	4.5382	0.0275	-93.1
105.56	2.0901E+5	4.5368	0.0270	-127.2
105.75	2.0951E+5	4.5311	0.0271	-123.7
105.93	2.1001E+5	4.5368	0.0289	-145.8
106.13	2.1051E+5	4.5354	0.0288	-134.4
106.31	2.1101E+5	4.5340	0.0307	-144.4
106.51	2.1151E+5	4.5382	0.0332	-140.2
106.71	2.1201E+5	4.5382	0.0274	-122.5
106.91	2.1251E+5	4.5340	0.0280	-87.0
107.11	2.1301E+5	4.5340	0.0273	-125.5
107.31	2.1351E+5	4.5368	Inf	+Inf
107.49	2.1401E+5	4.5354	0.0303	-150.8
107.69	2.1451E+5	4.5396	0.0323	-68.6
107.89	2.1501E+5	4.5382	0.0318	-140.4
108.09	2.1551E+5	4.5382	0.0273	-111.2
108.29	2.1601E+5	4.5354	0.0293	-147.7
108.49	2.1651E+5	4.5326	0.0280	-97.5
108.69	2.1701E+5	4.5340	0.0271	-122.2
108.89	2.1751E+5	4.5368	0.0282	-135.7
109.09	2.1801E+5	4.5354	0.0270	-111.0
109.31	2.1851E+5	4.5354	0.0272	-96.6
109.49	2.1901E+5	4.5382	0.0296	-98.7
109.71	2.1951E+5	4.5340	0.0289	-101.0
109.91	2.2001E+5	4.5326	0.0270	-121.4
110.10	2.2051E+5	4.5354	0.0288	-123.6
110.30	2.2101E+5	4.5368	0.0319	-154.7
110.50	2.2151E+5	4.5340	0.0293	-139.6
110.70	2.2201E+5	4.5368	0.0270	-112.5
110.90	2.2251E+5	4.5354	0.0303	-89.2
111.10	2.2301E+5	4.5354	Inf	+Inf
111.28	2.2351E+5	4.5340	0.0313	+204.6
111.48	2.2401E+5	4.5340	0.0277	-128.6
111.68	2.2451E+5	4.5368	0.0284	-134.6
111.87	2.2501E+5	4.5368	0.0281	-102.1
112.05	2.2551E+5	4.5354	Inf	+Inf
112.23	2.2601E+5	4.5382	0.0303	-154.3
112.43	2.2651E+5	4.5382	0.0304	-145.9
112.63	2.2701E+5	4.5354	0.0279	-112.9
112.83	2.2751E+5	4.5382	0.0278	-126.2
113.02	2.2801E+5	4.5326	0.0295	-111.1
113.22	2.2851E+5	4.5340	0.0316	-85.3
113.41	2.2901E+5	4.5340	0.0281	-102.3
113.61	2.2951E+5	4.5410	0.0314	-132.6
113.83	2.3001E+5	4.5382	0.0282	-100.9
114.06	2.3051E+5	4.5368	0.0322	-79.5
114.26	2.3101E+5	4.5425	0.0327	-109.1
114.46	2.3151E+5	4.5382	0.0304	-121.5
114.69	2.3201E+5	4.5382	0.0324	-160.3
114.89	2.3251E+5	4.5396	0.0316	-176.6
115.09	2.3301E+5	4.5340	0.0306	-150.7
115.28	2.3351E+5	4.5410	Inf	+Inf
115.48	2.3401E+5	4.5382	0.0289	-140.9
115.69	2.3451E+5	4.5396	Inf	+Inf
115.87	2.3501E+5	4.5368	0.0291	-128.0
116.07	2.3551E+5	4.5396	Inf	+Inf
116.26	2.3601E+5	4.5410	0.0291	+223.9
116.46	2.3651E+5	4.5368	0.0286	-117.9
116.67	2.3701E+5	4.5382	Inf	-467.4
116.86	2.3751E+5	4.5396	0.0297	-149.3
117.06	2.3801E+5	4.5382	0.0283	+239.6
117.26	2.3851E+5	4.5425	0.0291	-112.1
117.47	2.3901E+5	4.5368	Inf	+213.2
117.69	2.3951E+5	4.5425	0.0281	-105.5
117.90	2.4001E+5	4.5354	0.0288	-121.4
118.10	2.4051E+5	4.5396	0.0303	-143.0
118.30	2.4101E+5	4.5410	Inf	-100.5
118.50	2.4151E+5	4.5340	Inf	+Inf
118.70	2.4201E+5	4.5410	0.0312	-110.3
118.94	2.4251E+5	4.5425	0.0298	-129.2
119.14	2.4301E+5	4.5382	Inf	+250.8
119.33	2.4351E+5	4.5410	0.0290	-127.6
119.53	2.4401E+5	4.5382	Inf	+Inf
119.73	2.4451E+5	4.5439	0.0299	-142.1
119.93	2.4501E+5	4.5382	0.0286	-139.4
120.15	2.4551E+5	4.5410	Inf	+Inf
120.35	2.4601E+5	4.5396	0.0294	+232.3
120.58	2.4651E+5	4.5439	Inf	+238.0
120.78	2.4701E+5	4.5396	0.0281	-134.5
121.00	2.4751E+5	4.5439	Inf	+244.8
121.20	2.4801E+5	4.5368	0.0301	-124.5
121.41	2.4851E+5	4.5439	0.0284	-127.5
121.63	2.4901E+5	4.5368	0.0298	+232.9
121.85	2.4951E+5	4.5396	0.0288	-127.0
122.06	2.5001E+5	4.5382	Inf	+Inf
122.25	2.5051E+5	4.5453	0.0296	-118.1
122.46	2.5101E+5	4.5354	0.0294	-119.3
122.68	2.5151E+5	4.5396	Inf	+234.7
122.86	2.5201E+5	4.5453	0.0304	-134.9
123.06	2.5251E+5	4.5410	Inf	+241.2
123.24	2.5301E+5	4.5382	0.0296	-123.1
123.44	2.5351E+5	4.5368	Inf	+246.7
123.63	2.5401E+5	4.5410	Inf	-131.0
123.83	2.5451E+5	4.5382	Inf	+226.9
124.04	2.5501E+5	4.5425	0.0305	-127.5
124.26	2.5551E+5	4.5453	0.0303	-129.0
124.47	2.5601E+5	4.5453	Inf	-471.3
124.66	2.5651E+5	4.5396	Inf	+Inf
124.86	2.5701E+5	4.5410	Inf	+234.7
125.06	2.5751E+5	4.5453	Inf	-115.2
125.24	2.5801E+5	4.5410	0.0304	-175.4
125.44	2.5851E+5	4.5425	Inf	+Inf
125.62	2.5901E+5	4.5396	Inf	-132.5
125.82	2.5951E+5	4.5467	Inf	+246.8
126.02	2.6001E+5	4.5467	Inf	+Inf
126.20	2.6051E+5	4.5368	Inf	-494.9
126.42	2.6101E+5	4.5467	0.0329	+236.6
126.64	2.6151E+5	4.5425	0.0302	-142.3
126.84	2.6201E+5	4.5439	0.0300	-168.4
127.02	2.6251E+5	4.5453	Inf	-481.5
127.20	2.6301E+5	4.5425	Inf	+241.7
127.38	2.6351E+5	4.5396	0.0324	+226.4
127.60	2.6401E+5	4.5425	0.0325	-138.8
127.82	2.6451E+5	4.5425	Inf	+244.7
128.00	2.6501E+5	4.5425	Inf	-109.3
128.18	2.6551E+5	4.5410	Inf	+211.6
128.37	2.6601E+5	4.5425	0.0332	-136.2
128.55	2.6651E+5	4.5453	Inf	+Inf
128.73	2.6701E+5	4.5396	Inf	-123.3
128.93	2.6751E+5	4.5410	0.0329	-123.2
129.13	2.6801E+5	4.5439	0.0327	-116.4
129.31	2.6851E+5	4.5439	Inf	-483.0
129.50	2.6901E+5	4.5467	0.0337	-118.8
129.71	2.6951E+5	4.5439	Inf	+Inf
129.90	2.7001E+5	4.5439	Inf	+Inf
130.08	2.7051E+5	4.5481	Inf	+Inf
130.26	2.7101E+5	4.5425	Inf	-119.8
130.44	2.7151E+5	4.5467	0.0339	-134.5
130.63	2.7201E+5	4.5425	0.0350	-138.1
130.83	2.7251E+5	4.5425	Inf	-138.2
131.01	2.7301E+5	4.5425	0.0329	-128.2
131.21	2.7351E+5	4.5425	0.0337	-134.3
131.43	2.7401E+5	4.5410	Inf	-122.7
131.61	2.7451E+5	4.5368	Inf	+231.0
131.81	2.7501E+5	4.5481	0.0342	-130.4
132.01	2.7551E+5	4.5425	Inf	+233.0
132.19	2.7601E+5	4.5425	Inf	+Inf
132.37	2.7651E+5	4.5396	Inf	+Inf
132.57	2.7701E+5	4.5467	0.0350	-137.9
132.79	2.7751E+5	4.5382	Inf	+Inf
132.99	2.7801E+5	4.5410	0.0341	-124.0
133.21	2.7851E+5	4.5410	Inf	-126.1
133.39	2.7901E+5	4.5354	0.0358	-131.4
133.60	2.7951E+5	4.5467	0.0368	+226.5
133.82	2.8001E+5	4.5396	Inf	+Inf
134.02	2.8051E+5	4.5495	Inf	+236.8
134.22	2.8101E+5	4.5453	0.0361	-140.9
134.40	2.8151E+5	4.5382	0.0357	-129.2
134.62	2.8201E+5	4.5481	0.0370	-141.2
134.84	2.8251E+5	4.5425	0.0363	-140.5
135.02	2.8301E+5	4.5396	0.0380	+234.9
135.25	2.8351E+5	4.5538	Inf	+217.3
135.45	2.8401E+5	4.5425	Inf	+221.4
135.63	2.8451E+5	4.5467	0.0383	-140.2
135.82	2.8501E+5	4.5382	0.0357	-133.8
136.03	2.8551E+5	4.5453	0.0367	-126.2
136.26	2.8601E+5	4.5410	Inf	+212.4
136.45	2.8651E+5	4.5509	Inf	+Inf
136.63	2.8701E+5	4.5509	Inf	+228.9
136.81	2.8751E+5	4.5495	0.0369	+236.5
137.00	2.8801E+5	4.5453	0.0369	-134.9
137.18	2.8851E+5	4.5439	Inf	+224.3
137.36	2.8901E+5	4.5439	Inf	-128.8
137.55	2.8951E+5	4.5425	0.0371	-133.0
137.73	2.9001E+5	4.5425	0.0387	+233.7
137.93	2.9051E+5	4.5396	0.0412	-128.2
138.16	2.9101E+5	4.5538	Inf	-126.0
138.36	2.9151E+5	4.5368	0.0417	-121.6
138.56	2.9201E+5	4.5396	Inf	-123.6
138.74	2.9251E+5	4.5382	0.0383	+227.7
138.94	2.9301E+5	4.5396	Inf	-121.8
139.12	2.9351E+5	4.5467	Inf	+219.7
139.33	2.9401E+5	4.5509	0.0407	+245.4
139.53	2.9451E+5	4.5538	Inf	+220.0
139.72	2.9501E+5	4.5509	0.0399	-139.7
139.92	2.9551E+5	4.5524	Inf	+219.1
140.11	2.9601E+5	4.5439	0.0383	-124.0
140.31	2.9651E+5	4.5410	0.0449	-131.1
140.51	2.9701E+5	4.5439	0.0406	+238.5
140.71	2.9751E+5	4.5368	0.0434	+240.5
140.92	2.9801E+5	4.5410	Inf	-134.2
141.12	2.9851E+5	4.5425	0.0423	-146.9
141.32	2.9901E+5	4.5396	0.0408	-132.6
141.54	2.9951E+5	4.5410	0.0421	-138.7
141.77	3.0001E+5	4.5453	0.0425	-147.0
141.95	3.0051E+5	4.5538	0.0431	-142.3
142.15	3.0101E+5	4.5495	0.0482	+224.4
142.35	3.0151E+5	4.5509	0.0429	+230.5
142.55	3.0201E+5	4.5453	0.0418	+236.7
142.74	3.0251E+5	4.5495	0.0413	+233.2
142.93	3.0301E+5	4.5481	Inf	+223.9
143.12	3.0351E+5	4.5439	0.0415	-139.6
143.30	3.0401E+5	4.5538	0.0410	-139.7
143.48	3.0451E+5	4.5481	0.0484	-126.4
143.68	3.0501E+5	4.5425	Inf	-131.8
143.87	3.0551E+5	4.5524	0.0435	-132.6
144.07	3.0601E+5	4.5382	0.0436	-139.5
144.26	3.0651E+5	4.5467	Inf	+213.9
144.47	3.0701E+5	4.5410	0.0436	-133.4
144.65	3.0751E+5	4.5453	0.0420	-147.8
144.85	3.0801E+5	4.5467	Inf	-134.4
145.03	3.0851E+5	4.5552	0.0443	-137.6
145.23	3.0901E+5	4.5509	0.0519	-129.2
145.43	3.0951E+5	4.5439	0.0446	-158.9
145.63	3.1001E+5	4.5425	0.0438	-148.6
145.84	3.1051E+5	4.5467	Inf	+Inf
146.03	3.1101E+5	4.5566	0.0461	-150.1
146.23	3.1151E+5	4.5495	0.0446	+225.0
146.43	3.1201E+5	4.5453	Inf	+Inf
146.61	3.1251E+5	4.5566	Inf	+213.8
146.79	3.1301E+5	4.5509	0.0456	-141.7
146.98	3.1351E+5	4.5453	0.0488	-130.3
147.18	3.1401E+5	4.5524	Inf	+Inf
147.36	3.1451E+5	4.5439	0.0451	-145.2
147.56	3.1501E+5	4.5453	Inf	+215.8
147.74	3.1551E+5	4.5396	Inf	+207.5
147.94	3.1601E+5	4.5453	Inf	+210.8
148.14	3.1651E+5	4.5396	Inf	-137.9
148.34	3.1701E+5	4.5453	0.0484	-138.1
148.56	3.1751E+5	4.5594	0.0547	-131.0
148.75	3.1801E+5	4.5524	Inf	+211.4
148.94	3.1851E+5	4.5453	0.0561	-128.6
149.14	3.1901E+5	4.5382	0.0573	+228.7
149.34	3.1951E+5	4.5524	0.0511	-144.4
149.55	3.2001E+5	4.5410	0.0499	-136.6
149.75	3.2051E+5	4.5425	Inf	+213.6
149.94	3.2101E+5	4.5340	0.0485	-153.9
150.17	3.2151E+5	4.5552	0.0512	-137.5
150.39	3.2201E+5	4.5382	0.0501	-134.5
150.60	3.2251E+5	4.5354	0.0532	-134.2
150.80	3.2301E+5	4.5538	0.0587	-133.9
151.02	3.2351E+5	4.5382	0.0607	+224.8
151.25	3.2401E+5	4.5467	0.0573	+227.4
151.47	3.2451E+5	4.5524	Inf	+Inf
151.65	3.2501E+5	4.5396	0.0540	-139.0
151.88	3.2551E+5	4.5382	0.0537	-138.1
152.06	3.2601E+5	4.5538	0.0522	-143.2
152.28	3.2651E+5	4.5425	0.0516	+226.1
152.48	3.2701E+5	4.5368	0.0548	-144.2
152.71	3.2751E+5	4.5439	0.0651	+216.2
152.95	3.2801E+5	4.5382	0.0542	-147.8
153.16	3.2851E+5	4.5467	Inf	+215.0
153.36	3.2901E+5	4.5410	0.0536	-138.8
153.54	3.2951E+5	4.5509	Inf	+Inf
153.73	3.3001E+5	4.5495	0.0555	-132.0
153.93	3.3051E+5	4.5524	0.0518	+234.9
154.13	3.3101E+5	4.5453	0.0535	-147.2
154.33	3.3151E+5	4.5509	Inf	+Inf
154.51	3.3201E+5	4.5481	0.0573	-142.4
154.71	3.3251E+5	4.5495	0.0572	-138.5
154.89	3.3301E+5	4.5524	0.0561	-135.5
155.07	3.3351E+5	4.5410	0.0525	+236.6
155.28	3.3401E+5	4.5382	0.0558	-146.5
155.49	3.3451E+5	4.5509	0.0581	-145.8
155.71	3.3501E+5	4.5495	0.0585	-141.3
155.89	3.3551E+5	4.5566	0.0585	-147.9
156.07	3.3601E+5	4.5439	Inf	+Inf
156.26	3.3651E+5	4.5495	0.0557	+228.6
156.46	3.3701E+5	4.5552	0.0696	-136.2
156.66	3.3751E+5	4.5396	0.0672	+214.5
156.87	3.3801E+5	4.5425	0.0643	+226.0
157.09	3.3851E+5	4.5495	Inf	+Inf
157.27	3.3901E+5	4.5467	0.0627	-139.3
157.47	3.3951E+5	4.5495	0.0629	-146.1
157.66	3.4001E+5	4.5509	0.0623	-142.3
157.84	3.4051E+5	4.5453	0.0713	+224.4
158.04	3.4101E+5	4.5509	0.0657	-136.2
158.24	3.4151E+5	4.5495	0.0645	-134.6
158.42	3.4201E+5	4.5425	0.0672	-136.6
158.62	3.4251E+5	4.5495	0.0607	-145.7
158.82	3.4301E+5	4.5495	0.0669	-137.3
159.02	3.4351E+5	4.5425	0.0675	-135.1
159.22	3.4401E+5	4.5425	0.0782	-145.6
159.42	3.4451E+5	4.5425	0.0652	-140.3
159.62	3.4501E+5	4.5509	Inf	-150.7
159.80	3.4551E+5	4.5453	0.0706	-139.3
160.00	3.4601E+5	4.5509	0.0676	-144.5
160.20	3.4651E+5	4.5467	0.0661	-142.5
160.40	3.4701E+5	4.5524	0.0680	-141.5
160.60	3.4751E+5	4.5495	0.0713	-139.2
160.80	3.4801E+5	4.5368	0.0741	-139.6
161.01	3.4851E+5	4.5495	0.0683	+220.0
161.23	3.4901E+5	4.5439	0.0688	-137.4
161.43	3.4951E+5	4.5524	0.0680	-150.6
161.63	3.5001E+5	4.5410	0.0710	-145.5
161.83	3.5051E+5	4.5410	0.0745	-137.1
162.03	3.5101E+5	4.5524	0.0664	-144.7
162.23	3.5151E+5	4.5509	0.0846	-140.5
162.43	3.5201E+5	4.5396	0.0701	-144.8
162.64	3.5251E+5	4.5439	0.0730	-143.1
162.88	3.5301E+5	4.5425	0.0722	-139.3
163.08	3.5351E+5	4.5410	0.0721	-141.2
163.26	3.5401E+5	4.5439	0.0872	-135.3
163.46	3.5451E+5	4.5410	0.0766	-144.0
163.66	3.5501E+5	4.5340	0.0746	-145.6
163.87	3.5551E+5	4.5467	0.0736	-143.6
164.09	3.5601E+5	4.5495	0.0722	+225.7
164.29	3.5651E+5	4.5410	0.0767	-144.2
164.49	3.5701E+5	4.5453	0.0837	-137.9
164.69	3.5751E+5	4.5453	0.0744	-145.7
164.89	3.5801E+5	4.5382	0.0730	-149.5
165.10	3.5851E+5	4.5410	0.0839	-141.7
165.34	3.5901E+5	4.5382	0.0876	-143.3
165.55	3.5951E+5	4.5425	0.0807	-138.9
165.79	3.6001E+5	4.5382	0.0764	-146.6
166.00	3.6051E+5	4.5382	0.0896	-147.9
166.20	3.6101E+5	4.5368	0.0772	-142.5
166.40	3.6151E+5	4.5410	0.0958	+220.4
166.62	3.6201E+5	4.5396	0.0820	-143.4
166.83	3.6251E+5	4.5495	0.0848	-142.8
167.05	3.6301E+5	4.5467	0.0872	+225.1
167.25	3.6351E+5	4.5340	0.0901	-142.8
167.47	3.6401E+5	4.5425	0.0942	-135.8
167.68	3.6451E+5	4.5396	0.0814	-146.2
167.90	3.6501E+5	4.5425	0.0866	-146.4
168.11	3.6551E+5	4.5453	0.0871	-145.7
168.31	3.6601E+5	4.5368	0.0880	-144.4
168.53	3.6651E+5	4.5368	0.1013	-137.9
168.73	3.6701E+5	4.5410	0.0890	-144.7
168.95	3.6751E+5	4.5382	0.0939	-146.7
169.18	3.6801E+5	4.5425	0.0975	-139.3
169.41	3.6851E+5	4.5368	0.0891	-142.3
169.63	3.6901E+5	4.5311	0.0954	-142.1
169.83	3.6951E+5	4.5340	0.0917	-145.8
170.03	3.7001E+5	4.5410	0.0911	-145.4
170.24	3.7051E+5	4.5368	0.0958	-147.5
170.48	3.7101E+5	4.5340	0.0995	-143.8
170.68	3.7151E+5	4.5354	0.1011	-140.7
170.87	3.7201E+5	4.5326	0.0957	-146.8
171.07	3.7251E+5	4.5368	0.1057	-142.7
171.27	3.7301E+5	4.5368	0.0988	-144.1
171.47	3.7351E+5	4.5311	0.0964	-145.0
171.67	3.7401E+5	4.5340	0.1054	-144.7
171.87	3.7451E+5	4.5354	0.1066	-141.7
172.06	3.7501E+5	4.5311	0.1105	-139.4
172.26	3.7551E+5	4.5311	0.1046	-144.6
172.46	3.7601E+5	4.5311	0.1126	-138.8
172.66	3.7651E+5	4.5340	0.1168	-135.0
172.85	3.7701E+5	4.5255	0.1099	-143.6
173.06	3.7751E+5	4.5340	0.1190	-140.3
173.25	3.7801E+5	4.5241	0.1099	-140.5
173.45	3.7851E+5	4.5241	0.1275	-143.0
173.65	3.7901E+5	4.5326	0.1191	-138.9
173.85	3.7951E+5	4.5297	0.1139	-141.7
174.05	3.8001E+5	4.5354	0.1125	-140.7
174.25	3.8051E+5	4.5255	0.1207	-140.7
174.45	3.8101E+5	4.5297	0.1136	-140.1
174.65	3.8151E+5	4.5241	0.1147	-141.7
174.85	3.8201E+5	4.5255	0.1265	-141.4
175.05	3.8251E+5	4.5283	0.1193	-137.8
175.25	3.8301E+5	4.5283	0.1175	-143.0
175.45	3.8351E+5	4.5311	0.1271	-144.4
175.65	3.8401E+5	4.5269	0.1213	-140.8
175.85	3.8451E+5	4.5227	0.1269	-141.9
176.05	3.8501E+5	4.5311	0.1213	-141.0
176.25	3.8551E+5	4.5241	0.1273	-140.8
176.45	3.8601E+5	4.5311	0.1315	-137.9
176.65	3.8651E+5	4.5255	0.1348	-139.2
176.85	3.8701E+5	4.5255	0.1364	-139.2
177.05	3.8751E+5	4.5241	0.1465	-139.3
177.25	3.8801E+5	4.5255	0.1378	-140.5
177.44	3.8851E+5	4.5297	0.1466	-139.8
177.65	3.8901E+5	4.5269	0.1459	-136.2
177.84	3.8951E+5	4.5227	0.1472	-137.6
178.04	3.9001E+5	4.5269	0.1307	-143.0
178.24	3.9051E+5	4.5297	0.1404	-135.6
178.44	3.9101E+5	4.5241	0.1459	-141.4
178.64	3.9151E+5	4.5311	0.1473	-138.0
178.84	3.9201E+5	4.5212	0.1491	-134.0
179.04	3.9251E+5	4.5241	0.1497	-140.6
179.24	3.9301E+5	4.5269	0.1524	-136.9
179.44	3.9351E+5	4.5241	0.1545	-135.1
179.64	3.9401E+5	4.5269	0.1436	-136.8
179.84	3.9451E+5	4.5184	0.1646	-131.3
180.04	3.9501E+5	4.5184	0.1642	-139.7
180.22	3.9551E+5	4.5198	0.1517	-139.2
180.42	3.9601E+5	4.5241	0.1630	-135.7
180.62	3.9651E+5	4.5241	0.1697	-136.0
180.82	3.9701E+5	4.5269	0.1666	-138.8
181.02	3.9751E+5	4.5241	0.1650	-137.8
181.22	3.9801E+5	4.5170	0.1659	-135.8
181.40	3.9851E+5	4.5198	0.1720	-139.8
181.60	3.9901E+5	4.5198	0.1783	-133.1
181.80	3.9951E+5	4.5212	0.1777	-131.2
181.99	4.0001E+5	4.5255	0.1802	-134.8
182.18	4.0051E+5	4.5212	0.1757	-136.3
182.38	4.0101E+5	4.5212	0.1825	-134.6
182.58	4.0151E+5	4.5269	0.1789	-134.1
182.78	4.0201E+5	4.5255	0.1975	-133.0
182.98	4.0251E+5	4.5311	0.1935	-136.3
183.18	4.0301E+5	4.5269	0.1888	-132.5
183.38	4.0351E+5	4.5311	0.2008	-134.6
183.58	4.0401E+5	4.5269	0.2042	-135.1
183.78	4.0451E+5	4.5283	0.1949	-131.8
183.98	4.0501E+5	4.5255	0.2082	-125.9
184.18	4.0551E+5	4.5269	0.2178	-131.3
184.38	4.0601E+5	4.5283	0.2147	-127.8
184.58	4.0651E+5	4.5255	0.2171	-130.7
184.78	4.0701E+5	4.5283	0.2130	-128.5
184.98	4.0751E+5	4.5241	0.2194	-126.2
185.18	4.0801E+5	4.5269	0.2284	-130.7
185.38	4.0851E+5	4.5283	0.2314	-126.9
185.58	4.0901E+5	4.5269	0.2327	-124.6
185.78	4.0951E+5	4.5241	0.2393	-126.2
185.98	4.1001E+5	4.5241	0.2377	-126.3
186.18	4.1051E+5	4.5212	0.2434	-123.0
186.37	4.1101E+5	4.5297	0.2482	-126.1
186.57	4.1151E+5	4.5227	0.2386	-124.6
186.77	4.1201E+5	4.5269	0.2544	-123.3
186.97	4.1251E+5	4.5283	0.2616	-120.3
187.18	4.1301E+5	4.5241	0.2557	-122.8
187.37	4.1351E+5	4.5326	0.2627	-123.7
187.57	4.1401E+5	4.5297	0.2723	-121.9
187.77	4.1451E+5	4.5326	0.2652	-118.5
187.97	4.1501E+5	4.5283	0.2727	-121.4
188.17	4.1551E+5	4.5269	0.2813	-118.2
188.37	4.1601E+5	4.5311	0.2705	-119.3
188.57	4.1651E+5	4.5269	0.2932	-116.9
188.77	4.1701E+5	4.5311	0.2926	-115.5
188.97	4.1751E+5	4.5269	0.2929	-115.7
189.17	4.1801E+5	4.5326	0.3025	-113.5
189.37	4.1851E+5	4.5241	0.2964	-115.8
189.57	4.1901E+5	4.5184	0.3133	-115.2
189.77	4.1951E+5	4.5198	0.3227	-110.8
189.97	4.2001E+5	4.5340	0.3322	-110.3
190.17	4.2051E+5	4.5297	0.3334	-113.0
190.37	4.2101E+5	4.5326	0.3251	-105.9
190.57	4.2151E+5	4.5283	0.3239	-108.1
190.77	4.2201E+5	4.5255	0.3507	-107.1
190.97	4.2251E+5	4.5326	0.3394	-107.0
191.17	4.2301E+5	4.5269	0.3412	-103.4
191.37	4.2351E+5	4.5241	0.3486	-104.8
191.56	4.2401E+5	4.5269	0.3586	-105.0
191.76	4.2451E+5	4.5297	0.3664	-102.2
191.96	4.2501E+5	4.5297	0.3732	-103.0
192.16	4.2551E+5	4.5283	0.3662	-98.5
192.36	4.2601E+5	4.5297	0.3801	-100.4
192.56	4.2651E+5	4.5283	0.3720	-96.4
192.76	4.2701E+5	4.5283	0.3909	-93.4
192.96	4.2751E+5	4.5255	0.3923	-92.3
193.16	4.2801E+5	4.5297	0.3904	-92.8
193.36	4.2851E+5	4.5311	0.3999	-90.5
193.56	4.2901E+5	4.5326	0.4009	-88.8
193.76	4.2951E+5	4.5283	0.4080	-87.9
193.96	4.3001E+5	4.5326	0.4151	-87.4
194.16	4.3051E+5	4.5255	0.4129	-86.0
194.36	4.3101E+5	4.5241	0.4170	-81.6
194.56	4.3151E+5	4.5326	0.4035	-80.8
194.76	4.3201E+5	4.5311	0.4227	-80.3
194.96	4.3251E+5	4.5354	0.4105	-78.6
195.16	4.3301E+5	4.5269	0.4346	-77.6
195.36	4.3351E+5	4.5283	0.4192	-75.6
195.56	4.3401E+5	4.5410	0.4195	-74.1
195.76	4.3451E+5	4.5297	0.4096	-72.8
195.99	4.3501E+5	4.5368	0.4162	-72.5
196.19	4.3551E+5	4.5311	0.4107	-70.3
196.39	4.3601E+5	4.5340	0.4168	-66.0
196.59	4.3651E+5	4.5297	0.4221	-68.4
196.79	4.3701E+5	4.5255	0.4146	-65.4
196.99	4.3751E+5	4.5283	0.3979	-63.5
197.19	4.3801E+5	4.5326	0.4214	-62.5
197.38	4.3851E+5	4.5283	0.4049	-63.9
197.59	4.3901E+5	4.5311	0.4087	-58.5
197.78	4.3951E+5	4.5269	0.4088	-57.2
197.97	4.4001E+5	4.5269	0.3959	-55.8
198.17	4.4051E+5	4.5326	0.3871	-54.3
198.37	4.4101E+5	4.5354	0.3951	-53.5
198.57	4.4151E+5	4.5340	0.3978	-51.3
198.77	4.4201E+5	4.5269	0.3952	-50.5
198.97	4.4251E+5	4.5311	0.3963	-49.7
199.15	4.4301E+5	4.5297	0.3775	-49.3
199.35	4.4351E+5	4.5340	0.3781	-45.9
199.55	4.4401E+5	4.5255	0.3714	-43.6
199.75	4.4451E+5	4.5354	0.3787	-45.5
199.95	4.4501E+5	4.5354	0.3679	-42.0
200.15	4.4551E+5	4.5340	0.3636	-43.1
200.35	4.4601E+5	4.5269	0.3626	-43.2
200.54	4.4651E+5	4.5311	0.3582	-40.4
200.75	4.4701E+5	4.5340	0.3469	-41.5
200.94	4.4751E+5	4.5297	0.3543	-40.9
201.14	4.4801E+5	4.5326	0.3342	-39.5
201.34	4.4851E+5	4.5311	0.3423	-37.1
201.54	4.4901E+5	4.5326	0.3303	-36.0
201.74	4.4951E+5	4.5354	0.3261	-36.8
201.94	4.5001E+5	4.5340	0.3218	-35.6
202.14	4.5051E+5	4.5311	0.3261	-32.9
202.34	4.5101E+5	4.5326	0.3215	-32.7
202.54	4.5151E+5	4.5382	0.3221	-33.3
202.72	4.5201E+5	4.5311	0.3069	-31.9
202.92	4.5251E+5	4.5326	0.3126	-29.3
203.12	4.5301E+5	4.5368	0.2946	-30.7
203.32	4.5351E+5	4.5340	0.2946	-32.0
203.51	4.5401E+5	4.5368	0.2894	-25.1
203.71	4.5451E+5	4.5354	0.2843	-30.2
203.91	4.5501E+5	4.5354	0.2938	-27.6
204.10	4.5551E+5	4.5340	0.2858	-25.5
204.30	4.5601E+5	4.5340	0.2863	-26.2
204.49	4.5651E+5	4.5311	0.2731	-26.8
204.69	4.5701E+5	4.5368	0.2676	-23.0
204.89	4.5751E+5	4.5340	0.2659	-24.6
205.09	4.5801E+5	4.5396	0.2604	-23.1
205.28	4.5851E+5	4.5311	0.2693	-25.0
205.49	4.5901E+5	4.5326	0.2626	-23.3
205.69	4.5951E+5	4.5368	0.2569	-21.3
205.88	4.6001E+5	4.5396	0.2517	-22.5
206.08	4.6051E+5	4.5311	0.2489	-20.8
206.28	4.6101E+5	4.5340	0.2466	-20.9
206.48	4.6151E+5	4.5368	0.2554	-19.4
206.68	4.6201E+5	4.5297	0.2608	-22.1
206.88	4.6251E+5	4.5368	0.2330	-20.3
207.08	4.6301E+5	4.5340	0.2453	-20.2
207.28	4.6351E+5	4.5396	0.2278	-21.6
207.48	4.6401E+5	4.5311	0.2356	-16.2
207.68	4.6451E+5	4.5326	0.2284	-20.4
207.88	4.6501E+5	4.5368	0.2292	-17.3
208.06	4.6551E+5	4.5368	0.2241	-17.7
208.26	4.6601E+5	4.5382	0.2194	-17.3
208.46	4.6651E+5	4.5382	0.2196	-17.0
208.65	4.6701E+5	4.5297	0.2228	-18.1
208.84	4.6751E+5	4.5425	0.2208	-14.3
209.08	4.6801E+5	4.5340	0.1999	-12.5
209.29	4.6851E+5	4.5382	0.2121	-17.6
209.49	4.6901E+5	4.5340	0.2149	-17.4
209.69	4.6951E+5	4.5368	0.2071	-17.5
209.89	4.7001E+5	4.5382	0.2041	-13.8
210.09	4.7051E+5	4.5368	0.2031	-14.5
210.28	4.7101E+5	4.5311	0.2107	-15.0
210.47	4.7151E+5	4.5368	0.1983	-10.8
210.67	4.7201E+5	4.5340	0.1912	-13.6
210.87	4.7251E+5	4.5368	0.1897	-14.9
211.07	4.7301E+5	4.5396	0.2131	-13.9
211.27	4.7351E+5	4.5368	0.1876	-14.6
211.49	4.7401E+5	4.5368	0.1922	-14.7
211.69	4.7451E+5	4.5368	0.1895	-12.1
211.89	4.7501E+5	4.5396	0.1835	-13.7
212.09	4.7551E+5	4.5311	0.1877	-14.8
212.29	4.7601E+5	4.5340	0.1854	-10.6
212.49	4.7651E+5	4.5425	0.1922	-14.5
212.70	4.7701E+5	4.5354	0.1717	-13.1
212.92	4.7751E+5	4.5382	0.1824	-16.4
213.12	4.7801E+5	4.5326	0.1839	-9.7
213.32	4.7851E+5	4.5297	0.1638	-12.5
213.50	4.7901E+5	4.5382	0.1794	-11.1
213.68	4.7951E+5	4.5311	0.1722	-9.4
213.87	4.8001E+5	4.5410	0.1812	-10.3
214.08	4.8051E+5	4.5326	0.1725	-11.2
214.30	4.8101E+5	4.5326	0.1547	-10.8
214.48	4.8151E+5	4.5354	0.1604	-8.6
214.66	4.8201E+5	4.5311	0.1615	-8.5
214.85	4.8251E+5	4.5297	0.1598	-13.6
215.03	4.8301E+5	4.5425	0.1527	-11.0
215.25	4.8351E+5	4.5410	0.1513	-10.0
215.43	4.8401E+5	4.5410	0.1613	-14.6
215.61	4.8451E+5	4.5368	0.1750	-13.9
215.83	4.8501E+5	4.5396	0.1526	-8.4
216.01	4.8551E+5	4.5396	0.1636	-8.4
216.19	4.8601E+5	4.5354	0.1556	-7.6
216.38	4.8651E+5	4.5368	0.1546	-7.4
216.56	4.8701E+5	4.5439	0.1646	-11.8
216.78	4.8751E+5	4.5382	0.1448	-6.2
216.99	4.8801E+5	4.5467	0.1569	-10.4
217.21	4.8851E+5	4.5368	0.1528	-12.1
217.43	4.8901E+5	4.5311	0.1554	-4.8
217.61	4.8951E+5	4.5368	0.1520	-8.9
217.79	4.9001E+5	4.5382	0.1386	-10.9
217.97	4.9051E+5	4.5368	0.1464	-9.1
218.16	4.9101E+5	4.5311	0.1450	-4.4
218.34	4.9151E+5	4.5410	0.1520	-5.1
218.56	4.9201E+5	4.5396	0.1478	-8.3
218.77	4.9251E+5	4.5311	0.1498	-6.2
218.95	4.9301E+5	4.5326	0.1409	-5.9
219.14	4.9351E+5	4.5396	0.1440	-10.8
219.32	4.9401E+5	4.5396	0.1486	-3.5
219.50	4.9451E+5	4.5425	0.1389	-9.3
219.72	4.9501E+5	4.5396	0.1236	-6.5
219.92	4.9551E+5	4.5382	0.1387	-6.3
220.10	4.9601E+5	4.5410	0.1401	-5.1
220.32	4.9651E+5	4.5425	0.1463	-6.9
220.50	4.9701E+5	4.5382	0.1352	-9.0
220.72	4.9751E+5	4.5382	0.1329	-8.2
220.90	4.9801E+5	4.5453	0.1407	-7.6
221.12	4.9851E+5	4.5382	0.1354	-4.2
221.34	4.9901E+5	4.5311	0.1303	-7.7
221.53	4.9951E+5	4.5382	0.1371	-7.9
221.73	5.0001E+5	4.5354	0.1405	-9.2
221.93	5.0051E+5	4.5410	0.1314	-6.9
222.15	5.0101E+5	4.5340	0.1401	-11.7
222.38	5.0151E+5	4.5410	0.1282	-3.2
222.60	5.0201E+5	4.5354	0.1354	-5.3
222.81	5.0251E+5	4.5425	0.1251	-4.8
223.05	5.0301E+5	4.5453	0.1222	-5.5
223.25	5.0351E+5	4.5326	0.1310	-6.3
223.46	5.0401E+5	4.5297	0.1323	-11.5
223.66	5.0451E+5	4.5425	0.1242	-3.9
223.88	5.0501E+5	4.5326	0.1133	-8.2
224.09	5.0551E+5	4.5340	0.1227	-9.4
224.29	5.0601E+5	4.5396	0.1201	-6.4
224.50	5.0651E+5	4.5311	0.1106	-5.9
224.69	5.0701E+5	4.5368	0.1181	-4.9
224.89	5.0751E+5	4.5368	0.1273	-9.4
225.09	5.0801E+5	4.5382	0.1272	-15.5
225.28	5.0851E+5	4.5368	0.1259	-11.2
225.47	5.0901E+5	4.5368	0.1174	-7.4
225.68	5.0951E+5	4.5396	0.1213	-11.5
225.87	5.1001E+5	4.5340	0.1281	-10.0
226.07	5.1051E+5	4.5410	0.1204	-3.5
226.29	5.1101E+5	4.5410	0.1152	-6.5
226.49	5.1151E+5	4.5410	0.1136	-9.0
226.69	5.1201E+5	4.5354	0.1286	-2.4
226.92	5.1251E+5	4.5382	0.1185	-7.7
227.12	5.1301E+5	4.5396	0.1202	-7.5
227.32	5.1351E+5	4.5396	0.1067	-3.5
227.52	5.1401E+5	4.5368	0.1176	-1.7
227.72	5.1451E+5	4.5382	0.1109	-2.8
227.92	5.1501E+5	4.5396	0.1200	-8.9
228.12	5.1551E+5	4.5425	0.1233	-7.9
228.34	5.1601E+5	4.5382	0.1139	-9.7
228.55	5.1651E+5	4.5439	0.1114	-1.4
228.79	5.1701E+5	4.5326	0.1188	-1.3
229.00	5.1751E+5	4.5340	0.1085	-0.4
229.20	5.1801E+5	4.5340	0.1085	-2.2
229.39	5.1851E+5	4.5368	0.1160	-8.4
229.58	5.1901E+5	4.5368	0.0998	-8.0
229.78	5.1951E+5	4.5354	0.1082	-5.3
229.98	5.2001E+5	4.5368	0.1028	-0.1
230.18	5.2051E+5	4.5311	0.1148	-5.1
230.38	5.2101E+5	4.5368	0.1103	-10.0
230.60	5.2151E+5	4.5354	0.1071	-5.8
230.80	5.2201E+5	4.5368	0.1114	-3.7
231.00	5.2251E+5	4.5354	0.1048	-3.2
231.20	5.2301E+5	4.5368	0.1070	-2.8
231.40	5.2351E+5	4.5396	0.1019	-0.7
231.60	5.2401E+5	4.5354	0.1139	-6.5
231.80	5.2451E+5	4.5340	0.1070	+3.8
232.00	5.2501E+5	4.5354	0.1096	-7.2
232.19	5.2551E+5	4.5410	0.0997	+1.5
232.41	5.2601E+5	4.5425	0.1031	-7.6
232.61	5.2651E+5	4.5396	0.0963	-1.7
232.83	5.2701E+5	4.5354	0.1054	-2.9
233.03	5.2751E+5	4.5410	0.0942	-3.0
233.24	5.2801E+5	4.5396	0.1132	-3.2
233.46	5.2851E+5	4.5326	0.0909	-9.4
233.66	5.2901E+5	4.5326	0.0979	-2.5
233.86	5.2951E+5	4.5368	0.0967	-2.2
234.06	5.3001E+5	4.5382	0.1089	-5.5
234.26	5.3051E+5	4.5368	0.0939	-10.8
234.46	5.3101E+5	4.5396	0.0906	-0.7
234.66	5.3151E+5	4.5396	0.1028	+1.3
234.86	5.3201E+5	4.5354	0.0996	-7.5
235.06	5.3251E+5	4.5439	0.1005	-1.7
235.27	5.3301E+5	4.5410	0.1005	-0.7
235.46	5.3351E+5	4.5368	0.0894	-3.9
235.67	5.3401E+5	4.5396	0.1098	-1.5
235.87	5.3451E+5	4.5382	0.0989	-4.6
236.07	5.3501E+5	4.5410	0.1003	-8.1
236.29	5.3551E+5	4.5326	0.0905	-3.5
236.50	5.3601E+5	4.5354	0.1064	-5.9
236.70	5.3651E+5	4.5354	0.1075	+0.3
236.90	5.3701E+5	4.5382	0.0924	+3.0
237.10	5.3751E+5	4.5326	0.0947	+2.0
237.30	5.3801E+5	4.5340	0.0878	-4.2
237.50	5.3851E+5	4.5340	0.0946	-9.3
237.70	5.3901E+5	4.5354	0.0897	-3.8
237.90	5.3951E+5	4.5410	0.0996	+3.0
238.12	5.4001E+5	4.5396	0.0922	-8.2
238.33	5.4051E+5	4.5396	Inf	-355.2
238.51	5.4101E+5	4.5354	0.0959	-3.9
238.72	5.4151E+5	4.5382	0.0941	-4.9
238.91	5.4201E+5	4.5396	0.0853	-2.1
239.11	5.4251E+5	4.5354	0.0895	-9.3
239.31	5.4301E+5	4.5311	0.0898	-4.2
239.51	5.4351E+5	4.5396	0.0956	-6.3
239.71	5.4401E+5	4.5425	0.0915	+4.5
239.93	5.4451E+5	4.5326	0.0861	-0.3
240.15	5.4501E+5	4.5368	0.0906	-1.7
240.34	5.4551E+5	4.5368	0.0926	-6.8
240.54	5.4601E+5	4.5340	0.0804	-4.4
240.74	5.4651E+5	4.5439	0.0905	+1.3
240.96	5.4701E+5	4.5410	0.0910	+0.3
241.14	5.4751E+5	4.5410	0.0972	-4.2
241.34	5.4801E+5	4.5340	0.0875	-3.5
241.56	5.4851E+5	4.5425	0.0855	-2.0
241.78	5.4901E+5	4.5340	0.0847	-5.9
241.97	5.4951E+5	4.5297	0.0894	+1.8
242.17	5.5001E+5	4.5311	0.0905	-2.5
242.37	5.5051E+5	4.5311	0.0774	-2.7
242.57	5.5101E+5	4.5354	0.0848	+0.3
242.77	5.5151E+5	4.5382	0.0867	+1.4
242.97	5.5201E+5	4.5354	0.0791	-0.8
243.17	5.5251E+5	4.5354	0.0818	-2.0
243.37	5.5301E+5	4.5354	0.0828	-3.9
243.59	5.5351E+5	4.5382	0.0973	-2.8
243.79	5.5401E+5	4.5425	0.0840	-3.2
244.02	5.5451E+5	4.5326	0.0855	+5.8
244.24	5.5501E+5	4.5354	0.0816	+1.7
244.44	5.5551E+5	4.5340	0.0836	-4.9
244.63	5.5601E+5	4.5368	0.0760	-5.5
244.83	5.5651E+5	4.5396	0.0785	-4.5
245.03	5.5701E+5	4.5396	0.0810	-3.0
245.23	5.5751E+5	4.5340	0.0854	-5.5
245.43	5.5801E+5	4.5396	0.0790	-3.5
245.63	5.5851E+5	4.5439	0.0843	+0.1
245.85	5.5901E+5	4.5368	0.0842	-1.7
246.05	5.5951E+5	4.5382	0.0907	+4.4
246.25	5.6001E+5	4.5354	0.0930	-0.1
246.45	5.6051E+5	4.5354	0.0930	+3.7
246.63	5.6101E+5	4.5382	0.0863	-4.1
246.80	5.6151E+5	4.5467	0.0904	+3.8
247.01	5.6201E+5	4.5354	0.0809	-3.4
247.25	5.6251E+5	4.5439	0.0851	-7.5
247.46	5.6301E+5	4.5396	0.0854	-0.4
247.66	5.6351E+5	4.5269	0.0835	-1.7
247.86	5.6401E+5	4.5382	0.0884	+0.0
248.06	5.6451E+5	4.5354	0.0911	-9.7
248.26	5.6501E+5	4.5311	0.0797	-3.4
248.46	5.6551E+5	4.5382	0.0825	-4.4
248.66	5.6601E+5	4.5354	Inf	-358.6
248.84	5.6651E+5	4.5326	0.0829	-1.1
249.04	5.6701E+5	4.5425	0.0882	+6.3
249.28	5.6751E+5	4.5354	0.0812	+1.7
249.49	5.6801E+5	4.5453	0.0775	-2.0
249.71	5.6851E+5	4.5368	0.0744	+1.0
249.92	5.6901E+5	4.5410	Inf	-357.3
250.11	5.6951E+5	4.5340	0.0748	+0.1
250.31	5.7001E+5	4.5368	0.0811	-0.7
250.51	5.7051E+5	4.5354	0.0759	+2.3
250.71	5.7101E+5	4.5368	0.0780	-2.4
250.91	5.7151E+5	4.5340	0.0848	+1.7
251.10	5.7201E+5	4.5410	0.0912	-4.4
251.32	5.7251E+5	4.5326	0.0798	-1.1
251.55	5.7301E+5	4.5368	0.0862	+9.3
251.75	5.7351E+5	4.5340	0.0786	-1.3
251.95	5.7401E+5	4.5368	0.0784	-8.9
252.15	5.7451E+5	4.5382	0.0711	+1.7
252.35	5.7501E+5	4.5382	0.0803	-8.7
252.54	5.7551E+5	4.5368	0.0793	-8.2
252.73	5.7601E+5	4.5396	0.0805	-5.8
252.93	5.7651E+5	4.5368	Inf	-359.9
253.12	5.7701E+5	4.5354	0.0749	+2.4
253.32	5.7751E+5	4.5354	0.0849	-6.0
253.52	5.7801E+5	4.5340	0.0767	-1.3
253.72	5.7851E+5	4.5340	0.0815	-1.1
253.91	5.7901E+5	4.5382	0.0728	-5.1
254.11	5.7951E+5	4.5382	0.0732	+0.0
254.31	5.8001E+5	4.5340	0.0816	-3.9
254.50	5.8051E+5	4.5340	0.0715	+0.0
254.70	5.8101E+5	4.5425	0.0738	+2.4
254.93	5.8151E+5	4.5326	0.0703	-1.1
255.16	5.8201E+5	4.5326	0.0844	+9.4
255.36	5.8251E+5	4.5410	0.0824	-0.4
255.58	5.8301E+5	4.5410	0.0790	-7.7
255.78	5.8351E+5	4.5340	0.0756	+0.8
256.00	5.8401E+5	4.5326	0.0813	+0.1
256.18	5.8451E+5	4.5382	0.0772	-1.0
256.38	5.8501E+5	4.5283	0.0708	-0.7
256.58	5.8551E+5	4.5326	0.0719	+4.2
256.78	5.8601E+5	4.5368	0.0717	-0.4
256.96	5.8651E+5	4.5311	0.0852	+1.8
257.16	5.8701E+5	4.5382	0.0659	-1.8
257.36	5.8751E+5	4.5396	0.0694	+2.1
257.56	5.8801E+5	4.5311	0.0752	+1.7
257.74	5.8851E+5	4.5340	0.0642	+346.5
257.94	5.8901E+5	4.5382	0.0741	-4.6
258.14	5.8951E+5	4.5311	0.0699	-5.4
258.34	5.9001E+5	4.5354	0.0730	-1.5
258.54	5.9051E+5	4.5297	0.0732	-1.8
258.72	5.9101E+5	4.5425	0.0721	-1.8
258.94	5.9151E+5	4.5269	0.0795	-10.2
259.15	5.9201E+5	4.5368	0.0755	+4.9
259.32	5.9251E+5	4.5382	Inf	-354.0
259.50	5.9301E+5	4.5354	Inf	-366.5
259.69	5.9351E+5	4.5326	0.0725	+3.2
259.89	5.9401E+5	4.5340	0.0716	-3.2
260.07	5.9451E+5	4.5326	0.0699	-1.3
260.27	5.9501E+5	4.5311	0.0710	-0.6
260.45	5.9551E+5	4.5340	0.0722	-7.5
260.65	5.9601E+5	4.5311	0.0786	+2.5
260.85	5.9651E+5	4.5396	0.0708	-3.9
261.05	5.9701E+5	4.5326	0.0669	+351.3
261.25	5.9751E+5	4.5297	0.0708	+4.2
261.43	5.9801E+5	4.5311	0.0681	-4.8
261.61	5.9851E+5	4.5311	0.0696	+2.5
261.78	5.9901E+5	4.5283	0.0674	+2.5
261.96	5.9951E+5	4.5340	0.0722	-8.9
262.15	6.0001E+5	4.5396	0.0664	+1.4
262.33	6.0051E+5	4.5382	0.0698	+2.8
262.51	6.0101E+5	4.5368	0.0829	+12.1
262.69	6.0151E+5	4.5382	0.0622	+347.5
262.86	6.0201E+5	4.5382	Inf	-360.1
263.03	6.0251E+5	4.5368	0.0648	-4.2
263.23	6.0301E+5	4.5326	0.0708	+6.3
263.43	6.0351E+5	4.5326	0.0808	-0.3
263.63	6.0401E+5	4.5340	0.0666	-5.4
263.81	6.0451E+5	4.5326	0.0663	-3.8
263.99	6.0501E+5	4.5354	0.0778	-3.5
264.19	6.0551E+5	4.5382	0.0738	-0.4
264.39	6.0601E+5	4.5269	0.0709	-4.5
264.59	6.0651E+5	4.5311	0.0642	-1.8
264.79	6.0701E+5	4.5297	Inf	-356.8
264.96	6.0751E+5	4.5340	Inf	+352.5
265.14	6.0801E+5	4.5354	0.0617	+346.7
265.34	6.0851E+5	4.5368	0.0684	-5.2
265.54	6.0901E+5	4.5311	0.0681	-1.5
265.72	6.0951E+5	4.5410	0.0672	-6.0
265.91	6.1001E+5	4.5326	0.0671	+1.5
266.12	6.1051E+5	4.5326	0.0623	-347.2
266.32	6.1101E+5	4.5311	0.0681	-3.4
266.52	6.1151E+5	4.5340	0.0685	-7.3
266.70	6.1201E+5	4.5269	0.0613	+348.2
266.89	6.1251E+5	4.5326	0.0666	-6.5
267.09	6.1301E+5	4.5326	0.0731	+5.6
267.29	6.1351E+5	4.5283	0.0756	-11.5
267.49	6.1401E+5	4.5326	0.0670	-2.8
267.69	6.1451E+5	4.5283	0.0674	+6.9
267.87	6.1501E+5	4.5269	Inf	+2.1
268.05	6.1551E+5	4.5340	0.0652	-4.8
268.25	6.1601E+5	4.5340	0.0668	-5.5
268.45	6.1651E+5	4.5354	0.0693	-2.8
268.65	6.1701E+5	4.5354	0.0622	-0.8
268.83	6.1751E+5	4.5269	0.0610	-4.8
269.03	6.1801E+5	4.5368	0.0689	-1.8
269.23	6.1851E+5	4.5283	0.0626	+2.1
269.43	6.1901E+5	4.5354	0.0615	-2.1
269.60	6.1951E+5	4.5311	0.0620	-0.7
269.78	6.2001E+5	4.5382	0.0688	-5.8
269.98	6.2051E+5	4.5368	0.0751	+6.9
270.18	6.2101E+5	4.5326	0.0640	-4.2
270.38	6.2151E+5	4.5297	0.0685	-1.1
270.56	6.2201E+5	4.5255	0.0621	-5.2
270.76	6.2251E+5	4.5269	0.0625	-8.4
270.94	6.2301E+5	4.5326	0.0668	+2.5
271.15	6.2351E+5	4.5340	0.0667	-1.0
271.31	6.2401E+5	4.5283	0.0672	-8.2
271.51	6.2451E+5	4.5326	Inf	-357.6
271.69	6.2501E+5	4.5368	0.0681	-0.6
271.88	6.2551E+5	4.5297	0.0645	-9.1
272.08	6.2601E+5	4.5297	Inf	-359.0
272.24	6.2651E+5	4.5311	0.0638	-4.5
272.44	6.2701E+5	4.5269	0.0621	-1.7
272.64	6.2751E+5	4.5311	0.0671	-2.4
272.84	6.2801E+5	4.5382	0.0625	-1.4
273.02	6.2851E+5	4.5311	Inf	-2.4
273.21	6.2901E+5	4.5198	Inf	+356.9
273.39	6.2951E+5	4.5255	Inf	-2.0
273.57	6.3001E+5	4.5326	0.0657	+1.0
273.76	6.3051E+5	4.5326	0.0638	+355.5
273.96	6.3101E+5	4.5269	0.0645	+1.4
274.15	6.3151E+5	4.5326	Inf	+359.0
274.34	6.3201E+5	4.5269	0.0618	-0.1
274.52	6.3251E+5	4.5354	0.0682	-2.8
274.72	6.3301E+5	4.5269	0.0604	+2.9
274.92	6.3351E+5	4.5326	0.0610	+0.8
275.11	6.3401E+5	4.5297	0.0582	-2.8
275.29	6.3451E+5	4.5241	0.0619	+354.5
275.49	6.3501E+5	4.5297	Inf	+356.8
275.67	6.3551E+5	4.5241	0.0710	-2.8
275.87	6.3601E+5	4.5255	0.0634	-2.5
276.05	6.3651E+5	4.5255	0.0637	+2.5
276.24	6.3701E+5	4.5283	0.0617	+1.1
276.43	6.3751E+5	4.5227	Inf	-364.8
276.62	6.3801E+5	4.5269	0.0633	-7.3
276.80	6.3851E+5	4.5269	0.0576	-3.8
277.00	6.3901E+5	4.5297	0.0610	+353.3
277.20	6.3951E+5	4.5269	0.0580	-354.7
277.40	6.4001E+5	4.5283	Inf	-354.9
277.56	6.4051E+5	4.5326	0.0671	-0.4
277.76	6.4101E+5	4.5241	0.0597	-3.4
277.96	6.4151E+5	4.5255	0.0654	-6.6
278.15	6.4201E+5	4.5255	Inf	-362.8
278.33	6.4251E+5	4.5269	0.0706	-5.3
278.53	6.4301E+5	4.5241	0.0649	+1.0
278.73	6.4351E+5	4.5283	Inf	+360.8
278.90	6.4401E+5	4.5283	0.0643	+3.5
279.10	6.4451E+5	4.5297	0.0618	-2.7
279.30	6.4501E+5	4.5227	0.0694	-3.2
279.49	6.4551E+5	4.5269	Inf	-3.8
279.66	6.4601E+5	4.5297	Inf	+4.9
279.84	6.4651E+5	4.5241	Inf	+355.2
280.03	6.4701E+5	4.5311	Inf	-368.7
280.19	6.4751E+5	4.5227	0.0561	+350.3
280.39	6.4801E+5	4.5297	0.0592	-5.2
280.59	6.4851E+5	4.5297	0.0637	-7.6
280.79	6.4901E+5	4.5283	0.0593	+4.5
280.97	6.4951E+5	4.5255	0.0567	+350.7
281.17	6.5001E+5	4.5283	0.0620	-0.3
281.37	6.5051E+5	4.5255	0.0671	-8.8
281.56	6.5101E+5	4.5269	0.0623	-0.7
281.76	6.5151E+5	4.5283	0.0597	-5.6
281.96	6.5201E+5	4.5269	0.0578	-6.6
282.14	6.5251E+5	4.5297	0.0696	+1.7
282.34	6.5301E+5	4.5283	Inf	-3.1
282.50	6.5351E+5	4.5241	0.0635	-1.6
282.70	6.5401E+5	4.5198	Inf	-363.8
282.87	6.5451E+5	4.5283	0.0541	+346.7
283.07	6.5501E+5	4.5241	0.0552	+348.9
283.27	6.5551E+5	4.5227	0.0567	-6.3
283.45	6.5601E+5	4.5283	0.0583	-7.3
283.65	6.5651E+5	4.5269	0.0576	+4.5
283.84	6.5701E+5	4.5326	0.0666	-7.9
284.02	6.5751E+5	4.5255	0.0530	-349.0
284.22	6.5801E+5	4.5227	Inf	-349.8
284.40	6.5851E+5	4.5198	Inf	+1.7
284.58	6.5901E+5	4.5170	0.0574	-3.5
284.77	6.5951E+5	4.5269	0.0535	-350.9
284.97	6.6001E+5	4.5269	0.0636	-3.2
285.17	6.6051E+5	4.5198	0.0672	+4.9
285.35	6.6101E+5	4.5297	Inf	-358.2
285.53	6.6151E+5	4.5198	0.0575	-8.5
285.73	6.6201E+5	4.5283	0.0565	+3.1
285.92	6.6251E+5	4.5241	0.0598	-6.3
286.11	6.6301E+5	4.5297	0.0624	-17.6
286.31	6.6351E+5	4.5255	0.0569	+353.0
286.50	6.6401E+5	4.5297	0.0578	-4.5
286.69	6.6451E+5	4.5241	Inf	+4.4
286.88	6.6501E+5	4.5255	Inf	-363.5
287.05	6.6551E+5	4.5198	0.0620	-1.8
287.25	6.6601E+5	4.5227	0.0557	-5.8
287.44	6.6651E+5	4.5297	0.0578	+5.9
287.63	6.6701E+5	4.5340	Inf	-364.9
287.81	6.6751E+5	4.5255	0.0640	-12.2
288.01	6.6801E+5	4.5255	0.0594	-3.7
288.19	6.6851E+5	4.5212	0.0564	-1.3
288.39	6.6901E+5	4.5241	Inf	+364.9
288.58	6.6951E+5	4.5241	0.0528	+351.4
288.76	6.7001E+5	4.5255	0.0581	-3.7
288.96	6.7051E+5	4.5241	0.0538	-355.2
289.16	6.7101E+5	4.5170	0.0571	-4.1
289.34	6.7151E+5	4.5198	0.0570	+3.0
289.52	6.7201E+5	4.5269	0.0561	+1.8
289.71	6.7251E+5	4.5283	0.0550	-1.0
289.89	6.7301E+5	4.5269	0.0581	-0.4
290.09	6.7351E+5	4.5283	0.0602	+11.5
290.29	6.7401E+5	4.5212	Inf	-358.3
290.45	6.7451E+5	4.5283	0.0565	+5.2
290.65	6.7501E+5	4.5283	0.0621	-8.9
290.85	6.7551E+5	4.5283	0.0660	-8.6
291.04	6.7601E+5	4.5227	0.0579	-4.9
291.24	6.7651E+5	4.5227	0.0553	+3.0
291.44	6.7701E+5	4.5311	Inf	-1.0
291.60	6.7751E+5	4.5241	Inf	+357.9
291.79	6.7801E+5	4.5255	Inf	+362.4
291.97	6.7851E+5	4.5212	0.0544	-3.7
292.15	6.7901E+5	4.5255	Inf	-12.9
292.33	6.7951E+5	4.5227	0.0617	-16.0
292.53	6.8001E+5	4.5283	0.0559	-0.3
292.72	6.8051E+5	4.5297	Inf	+Inf
292.90	6.8101E+5	4.5255	0.0531	-355.2
293.10	6.8151E+5	4.5198	0.0552	+353.7
293.28	6.8201E+5	4.5227	0.0550	-11.3
293.46	6.8251E+5	4.5269	0.0555	+4.6
293.65	6.8301E+5	4.5269	Inf	-6.6
293.81	6.8351E+5	4.5283	0.0544	+356.3
294.01	6.8401E+5	4.5241	0.0569	-6.6
294.20	6.8451E+5	4.5297	0.0533	+351.7
294.40	6.8501E+5	4.5227	Inf	+1.8
294.58	6.8551E+5	4.5311	Inf	-4.6
294.75	6.8601E+5	4.5227	Inf	-360.8
294.93	6.8651E+5	4.5269	0.0552	-359.0
295.13	6.8701E+5	4.5269	0.0562	-7.6
295.31	6.8751E+5	4.5311	0.0544	+3.0
295.51	6.8801E+5	4.5212	0.0528	-3.9
295.71	6.8851E+5	4.5255	0.0570	+2.8
295.89	6.8901E+5	4.5241	0.0612	+5.4
296.09	6.8951E+5	4.5326	0.0580	+0.1
296.28	6.9001E+5	4.5198	0.0546	+347.8
296.48	6.9051E+5	4.5212	0.0613	-2.1
296.68	6.9101E+5	4.5198	0.0535	-1.3
296.86	6.9151E+5	4.5170	0.0550	-4.9
297.06	6.9201E+5	4.5283	Inf	-356.4
297.24	6.9251E+5	4.5283	0.0576	-4.1
297.42	6.9301E+5	4.5283	Inf	-1.7
297.61	6.9351E+5	4.5297	Inf	-6.2
297.77	6.9401E+5	4.5269	0.0545	+0.8
297.97	6.9451E+5	4.5212	0.0527	-6.5
298.17	6.9501E+5	4.5227	Inf	-367.2
298.34	6.9551E+5	4.5227	0.0529	-2.1
298.52	6.9601E+5	4.5212	Inf	-2.7
298.70	6.9651E+5	4.5227	0.0531	+352.0
298.89	6.9701E+5	4.5227	Inf	-2.8
299.07	6.9751E+5	4.5283	0.0562	-5.8
299.25	6.9801E+5	4.5255	0.0627	+9.4
299.45	6.9851E+5	4.5255	0.0529	-2.9
299.65	6.9901E+5	4.5184	0.0567	-8.3
299.83	6.9951E+5	4.5212	Inf	+356.9
300.02	7.0001E+5	4.5227	0.0631	+8.1
300.20	7.0051E+5	4.5255	Inf	+371.1
300.38	7.0101E+5	4.5269	0.0532	+1.5
300.58	7.0151E+5	4.5241	Inf	-15.3
300.75	7.0201E+5	4.5227	Inf	-366.7
300.93	7.0251E+5	4.5283	0.0633	-14.6
301.13	7.0301E+5	4.5283	0.0525	+346.5
301.31	7.0351E+5	4.5212	0.0512	+352.1
301.51	7.0401E+5	4.5227	Inf	-362.4
301.68	7.0451E+5	4.5212	Inf	-1.0
301.86	7.0501E+5	4.5184	0.0518	+358.0
302.06	7.0551E+5	4.5241	Inf	-10.7
302.23	7.0601E+5	4.5297	0.0569	-4.5
302.43	7.0651E+5	4.5241	0.0531	-0.7
302.61	7.0701E+5	4.5241	Inf	+357.0
302.79	7.0751E+5	4.5283	Inf	-358.2
302.98	7.0801E+5	4.5241	0.0576	-15.4
303.16	7.0851E+5	4.5297	0.0510	+347.5
303.36	7.0901E+5	4.5241	0.0514	-2.8
303.53	7.0951E+5	4.5241	0.0546	-1.0
303.73	7.1001E+5	4.5184	0.0581	+6.5
303.93	7.1051E+5	4.5269	0.0522	+3.1
304.11	7.1101E+5	4.5255	0.0537	+0.0
304.31	7.1151E+5	4.5283	0.0599	-14.3
304.49	7.1201E+5	4.5212	0.0500	+352.0
304.69	7.1251E+5	4.5241	0.0534	-3.2
304.87	7.1301E+5	4.5241	Inf	-0.4
305.06	7.1351E+5	4.5269	Inf	+11.8
305.22	7.1401E+5	4.5269	Inf	-11.7
305.37	7.1451E+5	4.5212	0.0511	+354.0
305.57	7.1501E+5	4.5269	0.0530	+0.1
305.75	7.1551E+5	4.5255	0.0518	-2.4
305.94	7.1601E+5	4.5227	0.0579	-0.6
306.14	7.1651E+5	4.5269	Inf	+354.8
306.30	7.1701E+5	4.5340	0.0524	-0.3
306.50	7.1751E+5	4.5255	0.0518	-1.7
306.67	7.1801E+5	4.5198	0.0488	-347.9
306.87	7.1851E+5	4.5241	0.0522	-5.9
307.07	7.1901E+5	4.5269	0.0518	+4.5
307.24	7.1951E+5	4.5184	0.0511	+353.4
307.44	7.2001E+5	4.5269	0.0517	-3.0
307.62	7.2051E+5	4.5255	Inf	+1.3
307.80	7.2101E+5	4.5255	0.0515	-5.5
307.99	7.2151E+5	4.5227	0.0520	+2.3
308.18	7.2201E+5	4.5241	Inf	-0.3
308.37	7.2251E+5	4.5241	0.0562	-12.5
308.55	7.2301E+5	4.5198	Inf	-5.9
308.73	7.2351E+5	4.5283	0.0517	-1.0
308.92	7.2401E+5	4.5255	0.0507	+350.7
309.12	7.2451E+5	4.5297	0.0514	-13.2
309.28	7.2501E+5	4.5311	Inf	-0.4
309.46	7.2551E+5	4.5227	0.0490	+349.9
309.66	7.2601E+5	4.5198	0.0537	-4.5
309.85	7.2651E+5	4.5184	0.0569	-12.1
310.05	7.2701E+5	4.5354	0.0527	+359.0
310.23	7.2751E+5	4.5198	0.0506	+5.5
310.43	7.2801E+5	4.5241	Inf	+Inf
310.60	7.2851E+5	4.5212	0.0503	+7.6
310.78	7.2901E+5	4.5212	0.0513	-357.9
310.96	7.2951E+5	4.5184	0.0516	+6.9
311.13	7.3001E+5	4.5283	0.0520	+0.8
311.33	7.3051E+5	4.5269	0.0492	+353.5
311.51	7.3101E+5	4.5283	0.0559	-3.8
311.71	7.3151E+5	4.5156	0.0507	-2.9
311.89	7.3201E+5	4.5311	0.0516	+350.0
312.09	7.3251E+5	4.5311	0.0488	+352.8
312.28	7.3301E+5	4.5255	0.0514	+4.6
312.47	7.3351E+5	4.5269	0.0489	-354.2
312.67	7.3401E+5	4.5198	0.0535	-2.4
312.86	7.3451E+5	4.5269	Inf	-1.3
313.04	7.3501E+5	4.5227	0.0616	-28.8
313.22	7.3551E+5	4.5227	0.0503	-2.3
313.42	7.3601E+5	4.5297	Inf	+351.1
313.59	7.3651E+5	4.5241	0.0508	-0.3
313.77	7.3701E+5	4.5198	0.0490	+0.8
313.95	7.3751E+5	4.5297	0.0502	-4.1
314.15	7.3801E+5	4.5283	0.0514	+350.4
314.34	7.3851E+5	4.5241	0.0497	-6.5
314.52	7.3901E+5	4.5212	Inf	+358.9
314.70	7.3951E+5	4.5184	0.0511	-2.5
314.89	7.4001E+5	4.5255	0.0514	+3.3
315.07	7.4051E+5	4.5283	0.0508	+1.2
315.24	7.4101E+5	4.5241	0.0501	-0.7
315.43	7.4151E+5	4.5241	Inf	-6.3
315.60	7.4201E+5	4.5283	0.0483	-3.6
315.80	7.4251E+5	4.5269	0.0493	-352.7
315.98	7.4301E+5	4.5227	0.0473	+347.0
316.18	7.4351E+5	4.5283	0.0583	-19.7
316.38	7.4401E+5	4.5198	0.0488	+3.5
316.57	7.4451E+5	4.5184	0.0504	+4.7
316.76	7.4501E+5	4.5241	0.0604	-24.0
316.95	7.4551E+5	4.5241	0.0479	+349.2
317.15	7.4601E+5	4.5241	Inf	-9.3
317.31	7.4651E+5	4.5212	0.0499	-354.6
317.51	7.4701E+5	4.5255	Inf	+5.5
317.68	7.4751E+5	4.5212	0.0497	-5.9
317.86	7.4801E+5	4.5227	0.0488	-3.0
318.05	7.4851E+5	4.5283	0.0486	+349.6
318.23	7.4901E+5	4.5241	0.0470	-3.6
318.41	7.4951E+5	4.5255	0.0499	+351.7
318.61	7.5001E+5	4.5170	0.0501	-2.2
318.79	7.5051E+5	4.5255	Inf	+358.8
318.96	7.5101E+5	4.5241	0.0503	-0.1
319.16	7.5151E+5	4.5198	0.0489	-357.2
319.34	7.5201E+5	4.5198	0.0470	-352.0
319.55	7.5251E+5	4.5212	0.0477	+357.4
319.73	7.5301E+5	4.5241	0.0485	+3.0
319.91	7.5351E+5	4.5212	0.0545	+6.0
320.09	7.5401E+5	4.5311	Inf	-6.1
320.27	7.5451E+5	4.5170	0.0494	+348.0
320.46	7.5501E+5	4.5156	0.0506	+343.2
320.66	7.5551E+5	4.5227	Inf	-0.3
320.82	7.5601E+5	4.5184	Inf	-8.0
321.01	7.5651E+5	4.5311	0.0488	+350.3
321.19	7.5701E+5	4.5283	Inf	-2.1
321.37	7.5751E+5	4.5184	0.0531	+1.6
321.56	7.5801E+5	4.5283	0.0474	-2.7
321.75	7.5851E+5	4.5170	Inf	-4.0
321.92	7.5901E+5	4.5212	0.0499	-5.2
322.12	7.5951E+5	4.5142	0.0490	-2.6
322.30	7.6001E+5	4.5255	0.0479	+349.1
322.49	7.6051E+5	4.5156	0.0485	-353.2
322.67	7.6101E+5	4.5283	0.0481	+353.0
322.84	7.6151E+5	4.5142	0.0487	-11.8
323.02	7.6201E+5	4.5297	0.0485	+351.9
323.19	7.6251E+5	4.5241	0.0538	-15.1
323.38	7.6301E+5	4.5198	Inf	-10.2
323.55	7.6351E+5	4.5255	0.0489	+1.1
323.75	7.6401E+5	4.5212	0.0538	+3.6
323.93	7.6451E+5	4.5184	0.0480	+356.6
324.13	7.6501E+5	4.5198	0.0493	-3.4
324.31	7.6551E+5	4.5269	0.0486	-4.7
324.51	7.6601E+5	4.5227	0.0482	-0.8
324.68	7.6651E+5	4.5198	Inf	+5.0
324.86	7.6701E+5	4.5227	0.0522	-357.8
325.05	7.6751E+5	4.5156	Inf	-6.8
325.23	7.6801E+5	4.5283	0.0476	-6.4
325.41	7.6851E+5	4.5269	0.0467	+355.4
325.61	7.6901E+5	4.5227	0.0486	-4.4
325.80	7.6951E+5	4.5283	0.0484	+7.6
325.98	7.7001E+5	4.5156	0.0474	-354.0
326.16	7.7051E+5	4.5184	0.0476	+356.4
326.36	7.7101E+5	4.5212	0.0519	-6.4
326.55	7.7151E+5	4.5227	0.0465	+0.3
326.74	7.7201E+5	4.5156	0.0541	-2.1
326.93	7.7251E+5	4.5269	0.0463	+355.5
327.13	7.7301E+5	4.5198	0.0541	-15.0
327.31	7.7351E+5	4.5142	0.0474	+354.3
327.51	7.7401E+5	4.5212	Inf	+Inf
327.67	7.7451E+5	4.5198	Inf	+5.4
327.86	7.7501E+5	4.5184	Inf	-0.4
328.02	7.7551E+5	4.5241	0.0467	-9.6
328.22	7.7601E+5	4.5212	Inf	-19.0
328.39	7.7651E+5	4.5198	Inf	+6.6
328.56	7.7701E+5	4.5184	0.0484	-0.8
328.74	7.7751E+5	4.5269	0.0468	-1.8
328.94	7.7801E+5	4.5269	0.0490	-358.2
329.12	7.7851E+5	4.5227	0.0486	+347.8
329.32	7.7901E+5	4.5297	Inf	-13.0
329.49	7.7951E+5	4.5170	0.0506	-3.2
329.69	7.8001E+5	4.5212	0.0467	+345.1
329.87	7.8051E+5	4.5227	Inf	+0.0
330.05	7.8101E+5	4.5212	Inf	-5.8
330.22	7.8151E+5	4.5184	0.0485	+354.6
330.42	7.8201E+5	4.5311	0.0474	+353.5
330.59	7.8251E+5	4.5184	0.0465	-10.4
330.79	7.8301E+5	4.5184	0.0483	+11.7
330.97	7.8351E+5	4.5142	Inf	-10.3
331.15	7.8401E+5	4.5212	0.0467	-4.2
331.33	7.8451E+5	4.5227	0.0546	-17.2
331.53	7.8501E+5	4.5212	0.0465	+353.8
331.72	7.8551E+5	4.5227	Inf	-363.7
331.90	7.8601E+5	4.5170	0.0464	-355.5
332.06	7.8651E+5	4.5269	0.0468	+353.5
332.25	7.8701E+5	4.5170	0.0471	+352.9
332.41	7.8751E+5	4.5227	0.0471	-354.6
332.60	7.8801E+5	4.5255	0.0469	-6.8
332.76	7.8851E+5	4.5156	0.0485	-360.9
332.96	7.8901E+5	4.5142	0.0479	-354.6
333.13	7.8951E+5	4.5212	Inf	-4.0
333.31	7.9001E+5	4.5198	0.0532	-11.8
333.50	7.9051E+5	4.5184	0.0479	-356.0
333.68	7.9101E+5	4.5269	0.0487	+361.1
333.86	7.9151E+5	4.5156	0.0466	+356.4
334.05	7.9201E+5	4.5212	0.0525	+7.4
334.25	7.9251E+5	4.5269	0.0467	-359.3
334.43	7.9301E+5	4.5170	0.0466	-355.6
334.61	7.9351E+5	4.5227	Inf	+335.4
334.78	7.9401E+5	4.5241	0.0466	+354.0
334.96	7.9451E+5	4.5227	0.0479	-6.4
335.14	7.9501E+5	4.5142	0.0471	+1.4
335.34	7.9551E+5	4.5241	0.0469	+350.7
335.51	7.9601E+5	4.5113	0.0458	+356.1
335.72	7.9651E+5	4.5258	Inf	-14.3
335.91	7.9701E+5	4.5227	Inf	-5.6
336.09	7.9751E+5	4.5184	Inf	-4.6
336.26	7.9801E+5	4.5198	0.0462	-3.0
336.44	7.9851E+5	4.5156	0.0455	+5.0
336.62	7.9901E+5	4.5212	0.0462	-1.0
336.82	7.9951E+5	4.5184	0.0449	-1.9
337.01	8.0001E+5	4.5184	Inf	+344.0
337.17	8.0051E+5	4.5184	0.0463	-351.9
337.37	8.0101E+5	4.5142	Inf	-4.0
337.54	8.0151E+5	4.5198	0.0466	-357.7
337.72	8.0201E+5	4.5142	0.0458	-0.4
337.90	8.0251E+5	4.5198	Inf	-8.7
338.09	8.0301E+5	4.5255	0.0468	+1.6
338.27	8.0351E+5	4.5128	0.0574	-24.2
338.47	8.0401E+5	4.5198	0.0454	+344.8
338.65	8.0451E+5	4.5212	Inf	+1.2
338.83	8.0501E+5	4.5212	0.0465	+352.1
339.02	8.0551E+5	4.5184	0.0464	+352.9
339.20	8.0601E+5	4.5255	0.0470	-1.9
339.37	8.0651E+5	4.5241	Inf	-2.5
339.55	8.0701E+5	4.5283	0.0467	-2.5
339.72	8.0751E+5	4.5156	0.0473	-355.6
339.88	8.0801E+5	4.5198	0.0477	-357.1
340.08	8.0851E+5	4.5156	Inf	-7.0
340.25	8.0901E+5	4.5212	0.0461	-1.2
340.45	8.0951E+5	4.5212	0.0455	-1.0
340.63	8.1001E+5	4.5156	0.0524	-15.4
340.83	8.1051E+5	4.5283	Inf	-4.4
341.00	8.1101E+5	4.5156	Inf	+6.0
341.18	8.1151E+5	4.5227	0.0463	+355.2
341.36	8.1201E+5	4.5170	Inf	-8.0
341.55	8.1251E+5	4.5227	0.0464	+2.3
341.69	8.1301E+5	4.5198	0.0461	+0.0
341.86	8.1351E+5	4.5241	Inf	+346.2
342.04	8.1401E+5	4.5198	Inf	-0.1
342.21	8.1451E+5	4.5184	0.0461	+352.7
342.38	8.1501E+5	4.5156	0.0464	-8.7
342.53	8.1551E+5	4.5212	0.0456	-12.2
342.73	8.1601E+5	4.5184	0.0453	-357.2
342.89	8.1651E+5	4.5212	Inf	-2.2
343.08	8.1701E+5	4.5198	0.0463	+351.9
343.26	8.1751E+5	4.5156	Inf	-1.2
343.44	8.1801E+5	4.5170	0.0457	-0.4
343.62	8.1851E+5	4.5184	0.0456	-5.2
343.79	8.1901E+5	4.5184	Inf	-27.6
343.97	8.1951E+5	4.5184	Inf	-12.2
344.14	8.2001E+5	4.5212	0.0453	-6.2
344.32	8.2051E+5	4.5099	0.0455	+3.7
344.51	8.2101E+5	4.5193	0.0453	+356.9
344.70	8.2151E+5	4.5170	Inf	-4.6
344.87	8.2201E+5	4.5184	0.0458	-0.1
345.05	8.2251E+5	4.5198	0.0445	+5.9
345.24	8.2301E+5	4.5212	0.0454	-7.3
345.42	8.2351E+5	4.5142	Inf	-1.2
345.60	8.2401E+5	4.5170	Inf	-3.7
345.77	8.2451E+5	4.5184	Inf	-8.4
345.95	8.2501E+5	4.5170	0.0462	+351.7
346.12	8.2551E+5	4.5198	0.0452	-2.8
346.32	8.2601E+5	4.5269	0.0460	+356.9
346.50	8.2651E+5	4.5156	0.0455	-356.4
346.69	8.2701E+5	4.5184	0.0470	-3.3
346.88	8.2751E+5	4.5099	0.0471	-3.3
347.07	8.2801E+5	4.5123	0.0460	+1.6
347.27	8.2851E+5	4.5128	0.0446	-5.7
347.45	8.2901E+5	4.5142	Inf	-5.8
347.63	8.2951E+5	4.5255	0.0456	+353.2
347.80	8.3001E+5	4.5198	Inf	+336.9
347.98	8.3051E+5	4.5212	Inf	-2.4
348.15	8.3101E+5	4.5227	0.0447	-354.6
348.31	8.3151E+5	4.5128	Inf	-3.1
348.50	8.3201E+5	4.5184	Inf	+1.0
348.66	8.3251E+5	4.5099	Inf	-10.0
348.86	8.3301E+5	4.5187	Inf	+0.1
349.05	8.3351E+5	4.5156	Inf	-14.7
349.23	8.3401E+5	4.5212	0.0448	-4.3
349.39	8.3451E+5	4.5212	Inf	+343.5
349.56	8.3501E+5	4.5184	0.0464	-354.0
349.76	8.3551E+5	4.5142	0.0444	-7.7
349.94	8.3601E+5	4.5184	0.0448	-3.9
350.14	8.3651E+5	4.5128	0.0473	-2.0
350.31	8.3701E+5	4.5128	0.0444	+356.1
350.51	8.3751E+5	4.5227	0.0460	-352.3
350.69	8.3801E+5	4.5085	0.0449	-355.6
350.89	8.3851E+5	4.5204	Inf	-3.2
351.09	8.3901E+5	4.5241	0.0443	-1.4
351.27	8.3951E+5	4.5156	Inf	+5.1
351.46	8.4001E+5	4.5156	0.0453	+356.1
351.64	8.4051E+5	4.5156	0.0435	-7.3
351.84	8.4101E+5	4.5170	0.0445	-355.9
352.01	8.4151E+5	4.5128	Inf	+346.8
352.17	8.4201E+5	4.5156	Inf	-2.0
352.36	8.4251E+5	4.5156	Inf	+340.7
352.52	8.4301E+5	4.5128	0.0445	-3.8
352.70	8.4351E+5	4.5113	Inf	+1.8
352.89	8.4401E+5	4.5194	0.0466	+355.1
353.11	8.4451E+5	4.5142	0.0452	+353.3
353.29	8.4501E+5	4.5156	Inf	-11.1
353.45	8.4551E+5	4.5071	0.0446	-4.1
353.65	8.4601E+5	4.5200	Inf	-4.3
353.83	8.4651E+5	4.5170	Inf	-6.7
354.02	8.4701E+5	4.5043	Inf	-13.4
354.20	8.4751E+5	4.5156	0.0453	+361.2
354.38	8.4801E+5	4.5085	Inf	-4.1
354.58	8.4851E+5	4.5142	0.0445	-9.0
354.78	8.4901E+5	4.5170	0.0457	-354.9
354.98	8.4951E+5	4.5198	Inf	+3.1
355.15	8.5001E+5	4.5198	0.0454	-0.9
355.33	8.5051E+5	4.5128	0.0441	-3.2
355.52	8.5101E+5	4.5113	Inf	-4.0
355.70	8.5151E+5	4.5047	Inf	+0.5
355.88	8.5201E+5	4.5113	Inf	-15.7
356.05	8.5251E+5	4.5109	Inf	-2.9
356.23	8.5301E+5	4.5152	0.0451	+357.1
356.43	8.5351E+5	4.5142	Inf	-13.5
356.60	8.5401E+5	4.5142	0.0432	+0.3
356.80	8.5451E+5	4.5099	0.0440	-9.5
356.98	8.5501E+5	4.5077	0.0448	+357.2
357.18	8.5551E+5	4.5218	Inf	-20.4
357.36	8.5601E+5	4.5128	0.0443	-0.3
357.55	8.5651E+5	4.5099	0.0439	+359.4
357.74	8.5701E+5	4.5249	Inf	-0.5
357.93	8.5751E+5	4.5099	0.0438	+355.7
358.13	8.5801E+5	4.5139	0.0425	+1.1
358.33	8.5851E+5	4.5071	0.0438	-5.7
358.54	8.5901E+5	4.5115	0.0446	+345.8
358.74	8.5951E+5	4.5156	0.0457	-355.8
358.91	8.6001E+5	4.5142	Inf	+332.1
359.09	8.6051E+5	4.5156	0.0436	+1.5
359.27	8.6101E+5	4.5156	Inf	-0.3
359.46	8.6151E+5	4.5113	0.0443	+357.1
359.64	8.6201E+5	4.5136	Inf	-7.5
359.82	8.6251E+5	4.5212	0.0448	+352.2
360.02	8.6301E+5	4.5156	0.0436	+357.4
360.21	8.6351E+5	4.5085	0.0432	+353.0
360.40	8.6401E+5	4.5227	0.0452	+356.4
360.61	8.6451E+5	4.5057	0.0497	+34.0
360.80	8.6501E+5	4.5119	Inf	+1.6
361.00	8.6551E+5	4.5170	0.0449	+354.5
361.19	8.6601E+5	4.5170	0.0449	+359.2
361.37	8.6651E+5	4.5099	Inf	-27.2
361.55	8.6701E+5	4.5092	0.0434	-3.9
361.73	8.6751E+5	4.5089	0.0442	+356.1
361.92	8.6801E+5	4.5065	0.0433	+4.0
362.08	8.6851E+5	4.5046	Inf	-3.0
362.27	8.6901E+5	4.5126	0.0449	-0.2
362.47	8.6951E+5	4.5113	Inf	-5.3
362.65	8.7001E+5	4.5101	0.0475	-4.4
362.85	8.7051E+5	4.5139	0.0439	-0.5
363.05	8.7101E+5	4.5142	0.0452	-358.6
363.25	8.7151E+5	4.5071	Inf	-1.3
363.43	8.7201E+5	4.5119	Inf	+8.5
363.62	8.7251E+5	4.5198	0.0433	-2.7
363.81	8.7301E+5	4.5071	Inf	-4.7
364.00	8.7351E+5	4.5111	Inf	-0.3
364.18	8.7401E+5	4.5125	0.0442	-359.8
364.36	8.7451E+5	4.5085	0.0449	+355.3
364.56	8.7501E+5	4.5105	Inf	+350.2
364.75	8.7551E+5	4.5140	0.0447	+352.8
364.93	8.7601E+5	4.5099	0.0442	+352.6
365.13	8.7651E+5	4.5143	Inf	+2.0
365.33	8.7701E+5	4.5085	Inf	+344.9
365.51	8.7751E+5	4.5116	0.0457	+353.8
365.73	8.7801E+5	4.5142	0.0451	-2.7
365.89	8.7851E+5	4.5128	Inf	-8.9
366.06	8.7901E+5	4.5184	Inf	+4.6
366.24	8.7951E+5	4.5184	0.0439	+350.4
366.43	8.8001E+5	4.5099	0.0439	+5.2
366.62	8.8051E+5	4.5077	Inf	-10.3
366.79	8.8101E+5	4.5126	0.0447	+355.9
366.99	8.8151E+5	4.5113	0.0434	+356.0
367.21	8.8201E+5	4.5053	Inf	-0.6
367.37	8.8251E+5	4.5125	0.0438	+360.2
367.57	8.8301E+5	4.5057	Inf	+0.6
367.75	8.8351E+5	4.5091	0.0436	-3.3
367.92	8.8401E+5	4.5106	Inf	-10.3
368.11	8.8451E+5	4.5130	Inf	-7.2
368.29	8.8501E+5	4.5085	0.0434	-2.4
368.47	8.8551E+5	4.5021	0.0428	-1.8
368.67	8.8601E+5	4.5081	0.0430	+353.5
368.84	8.8651E+5	4.5092	0.0418	-8.9
369.02	8.8701E+5	4.5120	0.0425	-0.5
369.20	8.8751E+5	4.5043	0.0448	-353.1
369.40	8.8801E+5	4.5149	0.0462	+353.9
369.62	8.8851E+5	4.5043	Inf	-30.8
369.80	8.8901E+5	4.5078	0.0429	-10.6
369.98	8.8951E+5	4.5160	0.0425	-1.1
370.19	8.9001E+5	4.5113	0.0436	+354.2
370.38	8.9051E+5	4.5070	Inf	-17.3
370.55	8.9101E+5	4.5087	0.0453	+360.5
370.73	8.9151E+5	4.5156	0.0435	+354.2
370.93	8.9201E+5	4.5113	0.0440	+355.3
371.13	8.9251E+5	4.5074	Inf	-7.4
371.30	8.9301E+5	4.5164	0.0438	+2.1
371.48	8.9351E+5	4.5071	Inf	-3.7
371.68	8.9401E+5	4.5063	0.0446	-358.5
371.86	8.9451E+5	4.5098	0.0429	-5.1
372.06	8.9501E+5	4.5135	0.0432	+361.1
372.26	8.9551E+5	4.5156	0.0440	+354.7
372.43	8.9601E+5	4.5071	0.0436	+360.6
372.63	8.9651E+5	4.5135	0.0433	+354.4
372.81	8.9701E+5	4.5043	0.0429	-357.7
373.01	8.9751E+5	4.5149	0.0413	-10.8
373.23	8.9801E+5	4.5113	Inf	-25.8
373.41	8.9851E+5	4.4982	0.0432	+357.7
373.61	8.9901E+5	4.5046	Inf	+345.9
373.78	8.9951E+5	4.5149	Inf	+345.1
373.96	9.0001E+5	4.5071	0.0425	+357.6
374.18	9.0051E+5	4.5130	0.0424	-0.8
374.36	9.0101E+5	4.5099	Inf	-32.7
374.54	9.0151E+5	4.5143	Inf	-2.6
374.74	9.0201E+5	4.5043	Inf	-24.0
374.92	9.0251E+5	4.5036	0.0430	+350.4
375.11	9.0301E+5	4.5026	Inf	-19.6
375.25	9.0351E+5	4.5058	0.0429	-357.6
375.42	9.0401E+5	4.5034	Inf	-12.0
375.61	9.0451E+5	4.5065	Inf	-11.7
375.77	9.0501E+5	4.5067	0.0429	+351.7
375.94	9.0551E+5	4.5106	Inf	+345.0
376.12	9.0601E+5	4.5123	0.0439	+357.1
376.32	9.0651E+5	4.5029	Inf	-353.8
376.50	9.0701E+5	4.5061	0.0433	-2.8
376.67	9.0751E+5	4.5112	Inf	-2.8
376.84	9.0801E+5	4.5036	0.0424	-5.2
377.04	9.0851E+5	4.5040	0.0455	+357.7
377.22	9.0901E+5	4.5079	0.0421	-5.9
377.40	9.0951E+5	4.5027	0.0438	+361.8
377.60	9.1001E+5	4.5007	0.0422	-7.7
377.78	9.1051E+5	4.5058	Inf	-16.7
377.95	9.1101E+5	4.5010	Inf	-18.9
378.13	9.1151E+5	4.5017	Inf	-2.5
378.30	9.1201E+5	4.5081	Inf	-1.3
378.46	9.1251E+5	4.5075	0.0431	-360.0
378.65	9.1301E+5	4.5139	Inf	-13.8
378.83	9.1351E+5	4.5057	Inf	+341.4
379.03	9.1401E+5	4.5020	0.0435	-353.4
379.21	9.1451E+5	4.5067	Inf	-356.4
379.36	9.1501E+5	4.5084	Inf	+6.8
379.55	9.1551E+5	4.5023	Inf	+5.1
379.71	9.1601E+5	4.5071	0.0436	+357.2
379.88	9.1651E+5	4.5046	Inf	+0.0
380.06	9.1701E+5	4.5027	Inf	-2.0
380.23	9.1751E+5	4.5088	0.0413	-7.4
380.41	9.1801E+5	4.5057	Inf	-5.0
380.59	9.1851E+5	4.5081	Inf	-0.7
380.76	9.1901E+5	4.5089	0.0413	-2.3
380.93	9.1951E+5	4.5140	0.0431	-1.8
381.14	9.2001E+5	4.5085	0.0381	-9.5
381.34	9.2051E+5	4.5078	0.0416	-5.8
381.54	9.2101E+5	4.5129	0.0439	+362.5
381.74	9.2151E+5	4.5099	0.0420	-3.0
381.94	9.2201E+5	4.5149	Inf	-5.2
382.14	9.2251E+5	4.5029	0.0429	+357.0
382.32	9.2301E+5	4.5130	0.0424	-5.7
382.49	9.2351E+5	4.5057	Inf	-3.3
382.69	9.2401E+5	4.5092	0.0414	-4.5
382.87	9.2451E+5	4.5108	0.0412	-6.0
383.04	9.2501E+5	4.5051	Inf	+0.5
383.22	9.2551E+5	4.5019	0.0431	-361.7
383.41	9.2601E+5	4.5020	0.0443	-361.3
383.59	9.2651E+5	4.5106	0.0435	+357.3
383.77	9.2701E+5	4.5067	Inf	-1.7
383.94	9.2751E+5	4.5094	Inf	-20.4
384.11	9.2801E+5	4.5091	0.0426	+349.5
384.30	9.2851E+5	4.5123	0.0420	+0.3
384.49	9.2901E+5	4.5057	0.0414	-3.2
384.69	9.2951E+5	4.5058	0.0444	+359.7
384.89	9.3001E+5	4.5095	0.0424	-1.0
385.07	9.3051E+5	4.5027	0.0436	-359.2
385.27	9.3101E+5	4.5043	Inf	-6.9
385.43	9.3151E+5	4.4980	0.0427	-359.5
385.62	9.3201E+5	4.5065	0.0426	-3.9
385.80	9.3251E+5	4.5105	0.0430	+361.3
385.97	9.3301E+5	4.5031	Inf	+352.6
386.13	9.3351E+5	4.5109	Inf	-15.9
386.32	9.3401E+5	4.5040	0.0433	-357.3
386.50	9.3451E+5	4.5047	Inf	-0.8
386.67	9.3501E+5	4.5021	Inf	-2.5
386.85	9.3551E+5	4.5068	Inf	+343.5
387.01	9.3601E+5	4.5009	0.0434	+0.5
387.18	9.3651E+5	4.5078	0.0397	-3.5
387.38	9.3701E+5	4.5021	Inf	-3.5
387.55	9.3751E+5	4.5074	Inf	-8.9
387.71	9.3801E+5	4.5187	0.0410	+6.2
387.93	9.3851E+5	4.5043	0.0414	-359.2
388.10	9.3901E+5	4.5041	Inf	+0.5
388.26	9.3951E+5	4.5023	0.0373	+19.8
388.46	9.4001E+5	4.5034	0.0430	-362.5
388.64	9.4051E+5	4.5021	0.0424	+350.2
388.81	9.4101E+5	4.5132	Inf	+0.8
389.01	9.4151E+5	4.5014	0.0426	+352.0
389.18	9.4201E+5	4.5031	Inf	+3.2
389.34	9.4251E+5	4.5129	0.0414	-12.6
389.56	9.4301E+5	4.5029	0.0437	+362.2
389.76	9.4351E+5	4.5164	0.0420	+357.3
389.96	9.4401E+5	4.5057	0.0432	+360.0
390.17	9.4451E+5	4.5021	Inf	-2.5
390.34	9.4501E+5	4.5112	0.0425	-356.8
390.52	9.4551E+5	4.4947	0.0428	+361.5
390.69	9.4601E+5	4.5048	0.0423	+360.9
390.86	9.4651E+5	4.5057	0.0422	-359.1
391.02	9.4701E+5	4.5005	Inf	+351.0
391.21	9.4751E+5	4.5002	0.0424	+362.6
391.37	9.4801E+5	4.5038	0.0418	+355.9
391.52	9.4851E+5	4.5033	0.0415	-359.3
391.72	9.4901E+5	4.5085	Inf	+1.9
391.89	9.4951E+5	4.5055	Inf	-3.3
392.05	9.5001E+5	4.5104	Inf	-16.6
392.24	9.5051E+5	4.4996	0.0424	+2.1
392.42	9.5101E+5	4.5036	Inf	-11.8
392.59	9.5151E+5	4.5050	0.0416	+359.0
392.79	9.5201E+5	4.5017	Inf	-356.6
392.95	9.5251E+5	4.5021	Inf	-13.7
393.12	9.5301E+5	4.5096	Inf	-355.7
393.30	9.5351E+5	4.5027	Inf	-3.4
393.45	9.5401E+5	4.5010	Inf	-360.3
393.62	9.5451E+5	4.5082	0.0328	-29.4
393.82	9.5501E+5	4.4954	Inf	-364.1
393.98	9.5551E+5	4.5051	0.0411	-2.9
394.15	9.5601E+5	4.4956	Inf	-3.6
394.33	9.5651E+5	4.5016	Inf	-1.6
394.50	9.5701E+5	4.4968	Inf	-0.2
394.67	9.5751E+5	4.5051	Inf	-363.4
394.85	9.5801E+5	4.5026	Inf	+0.3
395.01	9.5851E+5	4.5033	0.0416	+354.0
395.16	9.5901E+5	4.5038	Inf	+347.2
395.35	9.5951E+5	4.5053	0.0433	+361.6
395.53	9.6001E+5	4.5003	0.0405	-3.6
395.71	9.6051E+5	4.4971	Inf	-359.7
395.90	9.6101E+5	4.4978	Inf	+0.7
396.06	9.6151E+5	4.5048	0.0418	+356.9
396.25	9.6201E+5	4.5027	Inf	-3.1
396.43	9.6251E+5	4.5077	Inf	-3.8
396.58	9.6301E+5	4.5000	Inf	+336.0
396.73	9.6351E+5	4.4964	0.0429	+359.1
396.89	9.6401E+5	4.5024	0.0417	+362.8
397.06	9.6451E+5	4.5013	Inf	-18.1
397.23	9.6501E+5	4.4990	0.0428	-4.5
397.43	9.6551E+5	4.4976	0.0403	+359.3
397.61	9.6601E+5	4.4945	0.0411	-359.3
397.77	9.6651E+5	4.5043	Inf	+340.0
397.96	9.6701E+5	4.4966	0.0407	+358.6
398.12	9.6751E+5	4.4995	Inf	-14.6
398.29	9.6801E+5	4.5000	Inf	+345.2
398.46	9.6851E+5	4.5060	Inf	-4.4
398.64	9.6901E+5	4.5009	0.0404	-5.9
398.79	9.6951E+5	4.4944	Inf	-1.2
398.95	9.7001E+5	4.5005	Inf	-15.9
399.14	9.7051E+5	4.4966	Inf	-13.1
399.31	9.7101E+5	4.5057	Inf	-35.0
399.47	9.7151E+5	4.5033	Inf	+341.5
399.65	9.7201E+5	4.5005	Inf	+338.1
399.82	9.7251E+5	4.4976	Inf	-359.6
399.99	9.7301E+5	4.4949	0.0404	+359.8
400.17	9.7351E+5	4.4945	0.0397	-2.1
400.35	9.7401E+5	4.5016	0.0403	-356.3
400.52	9.7451E+5	4.5027	Inf	-7.7
400.70	9.7501E+5	4.4896	Inf	-5.6
400.87	9.7551E+5	4.4952	0.0419	-5.8
401.05	9.7601E+5	4.5014	Inf	+340.2
401.23	9.7651E+5	4.4973	0.0406	+359.8
401.40	9.7701E+5	4.4901	Inf	-2.1
401.57	9.7751E+5	4.4958	0.0408	-11.1
401.75	9.7801E+5	4.4930	0.0406	-7.1
401.92	9.7851E+5	4.4958	Inf	-3.4
402.08	9.7901E+5	4.5057	0.0454	+360.5
402.25	9.7951E+5	4.5000	0.0395	+357.0
402.45	9.8001E+5	4.4958	Inf	+352.6
402.61	9.8051E+5	4.5029	0.0407	+356.8
402.80	9.8101E+5	4.4972	0.0406	-3.5
402.98	9.8151E+5	4.5029	0.0398	-2.6
403.15	9.8201E+5	4.5014	0.0401	-6.4
403.31	9.8251E+5	4.4986	0.0407	-5.8
403.51	9.8301E+5	4.5000	0.0413	-4.4
403.68	9.8351E+5	4.5057	0.0400	-4.2
403.86	9.8401E+5	4.5057	0.0417	+356.1
404.06	9.8451E+5	4.5000	0.0419	+358.0
404.24	9.8501E+5	4.4944	0.0418	+363.2
404.39	9.8551E+5	4.4986	0.0399	-5.7
404.56	9.8601E+5	4.4958	0.0407	+1.4
404.76	9.8651E+5	4.4972	Inf	-4.1
404.93	9.8701E+5	4.4944	Inf	-4.6
405.09	9.8751E+5	4.5014	Inf	+4.8
405.28	9.8801E+5	4.4972	0.0353	-1.4
405.46	9.8851E+5	4.5014	Inf	-2.8
405.62	9.8901E+5	4.5085	0.0403	+361.4
405.83	9.8951E+5	4.5014	0.0410	-360.9
405.99	9.9001E+5	4.4986	Inf	+351.5
406.16	9.9051E+5	4.5043	0.0390	+360.2
406.36	9.9101E+5	4.5057	0.0392	-357.9
406.51	9.9151E+5	4.4958	Inf	-10.4
406.67	9.9201E+5	4.4958	Inf	+363.4
406.82	9.9251E+5	4.4972	Inf	+347.0
407.00	9.9301E+5	4.5014	0.0417	+365.0
407.19	9.9351E+5	4.4972	Inf	-353.9
