#date: 15.10.2020	time: 15:21:37
#t (s)	f (Hz)	A1 (V)	A2 (V)	phase (deg)
33.62	1.0000E+1	1.5242	Inf	+Inf
33.87	5.1000E+2	2.3722	0.0241	+135.4
34.11	1.0100E+3	2.3746	Inf	+138.7
34.41	1.5100E+3	2.3913	0.0575	+148.4
34.82	2.0100E+3	2.4090	0.0658	+154.2
35.05	2.5100E+3	2.4288	0.0725	+157.6
35.30	3.0100E+3	2.4514	0.0771	+164.4
35.53	3.5100E+3	2.4747	0.0796	+165.0
35.77	4.0100E+3	2.4992	0.0819	+173.9
36.00	4.5100E+3	2.5262	0.0830	+175.0
36.23	5.0100E+3	2.5521	0.0842	-179.7
36.46	5.5100E+3	2.5802	0.0856	-171.3
36.70	6.0100E+3	2.6122	0.0852	-172.8
36.93	6.5100E+3	2.6401	0.0858	-165.6
37.16	7.0100E+3	2.6710	0.0873	-153.5
37.40	7.5100E+3	2.7043	0.0862	-166.4
37.63	8.0100E+3	2.7429	0.0865	-160.6
37.83	8.5100E+3	2.7803	0.0857	-159.3
38.05	9.0100E+3	2.8195	0.0848	-158.5
38.26	9.5100E+3	2.8618	0.0845	-154.0
38.48	1.0010E+4	2.9011	0.0842	-155.4
38.68	1.0510E+4	2.9411	0.0834	-151.1
38.91	1.1010E+4	2.9776	0.0829	-149.2
39.11	1.1510E+4	3.0161	0.0825	-147.6
39.34	1.2010E+4	3.0490	0.0820	-149.4
39.54	1.2510E+4	3.0817	0.0812	-144.4
39.77	1.3010E+4	3.1137	0.0805	-142.9
39.97	1.3510E+4	3.1434	0.0795	-143.7
40.21	1.4010E+4	3.1765	0.0789	-144.8
40.41	1.4510E+4	3.2122	0.0787	-136.9
40.61	1.5010E+4	3.2472	0.0772	-138.7
40.84	1.5510E+4	3.2797	0.0765	-142.6
41.07	1.6010E+4	3.3128	0.0756	-139.2
41.29	1.6510E+4	3.3399	0.0754	-138.9
41.50	1.7010E+4	3.3706	0.0748	-134.2
41.70	1.7510E+4	3.3968	0.0737	-138.5
41.94	1.8010E+4	3.4223	0.0730	-129.8
42.14	1.8510E+4	3.4419	0.0720	-127.9
42.37	1.9010E+4	3.4654	0.0707	-132.9
42.60	1.9510E+4	3.4924	0.0700	-133.5
42.80	2.0010E+4	3.5198	0.0688	-136.2
43.00	2.0510E+4	3.5490	0.0684	-136.2
43.23	2.1010E+4	3.5723	0.0683	-130.3
43.43	2.1510E+4	3.6027	0.0675	-135.1
43.65	2.2010E+4	3.6221	0.0673	-133.6
43.85	2.2510E+4	3.6491	0.0654	-126.8
44.07	2.3010E+4	3.6696	0.0660	-128.6
44.30	2.3510E+4	3.6901	0.0647	-130.2
44.50	2.4010E+4	3.7137	0.0637	-126.6
44.73	2.4510E+4	3.7307	0.0640	-128.2
44.93	2.5010E+4	3.7474	0.0634	-123.2
45.11	2.5510E+4	3.7665	0.0622	-119.8
45.33	2.6010E+4	3.7846	0.0613	-125.3
45.55	2.6510E+4	3.8017	0.0599	-125.1
45.76	2.7010E+4	3.8185	0.0592	-125.2
45.98	2.7510E+4	3.8338	0.0593	-115.0
46.18	2.8010E+4	3.8570	0.0575	-129.6
46.39	2.8510E+4	3.8694	0.0583	-123.1
46.61	2.9010E+4	3.8858	0.0566	-123.6
46.81	2.9510E+4	3.9028	0.0560	-133.2
47.03	3.0010E+4	3.9154	0.0554	-123.9
47.23	3.0510E+4	3.9329	0.0551	-119.0
47.42	3.1010E+4	3.9423	0.0546	-123.5
47.61	3.1510E+4	3.9537	0.0553	-114.6
47.81	3.2010E+4	3.9698	0.0560	+233.7
48.01	3.2510E+4	3.9828	0.0525	-120.1
48.24	3.3010E+4	3.9994	0.0521	-127.4
48.41	3.3510E+4	4.0090	0.0526	-120.5
48.61	3.4010E+4	4.0226	0.0507	-125.5
48.80	3.4510E+4	4.0357	0.0507	-120.9
49.00	3.5010E+4	4.0506	0.0512	-130.7
49.20	3.5510E+4	4.0599	0.0505	-122.4
49.40	3.6010E+4	4.0714	0.0491	-121.3
49.62	3.6510E+4	4.0790	0.0485	-120.9
49.82	3.7010E+4	4.0876	0.0480	-136.8
50.04	3.7510E+4	4.1016	0.0481	-128.5
50.22	3.8010E+4	4.1083	0.0475	-131.6
50.40	3.8510E+4	4.1179	0.0468	-126.2
50.63	3.9010E+4	4.1284	0.0466	-129.0
50.82	3.9510E+4	4.1347	0.0461	-107.5
51.00	4.0010E+4	4.1445	0.0468	-122.1
51.20	4.0510E+4	4.1554	0.0451	-128.6
51.42	4.1010E+4	4.1651	0.0451	-129.7
51.60	4.1510E+4	4.1673	0.0443	-122.3
51.80	4.2010E+4	4.1770	0.0461	-120.7
52.03	4.2510E+4	4.1852	0.0430	-124.4
52.23	4.3010E+4	4.1906	0.0429	-118.1
52.41	4.3510E+4	4.1985	0.0440	-113.7
52.61	4.4010E+4	4.2022	0.0431	-117.9
52.85	4.4510E+4	4.2086	0.0420	-119.8
53.03	4.5010E+4	4.2142	0.0439	-127.6
53.23	4.5510E+4	4.2235	0.0426	-129.2
53.45	4.6010E+4	4.2303	0.0408	-126.0
53.68	4.6510E+4	4.2349	0.0408	-121.3
53.88	4.7010E+4	4.2391	0.0394	-134.3
54.08	4.7510E+4	4.2424	0.0404	-129.2
54.29	4.8010E+4	4.2510	0.0407	-123.0
54.48	4.8510E+4	4.2547	0.0398	-129.8
54.67	4.9010E+4	4.2583	0.0392	-130.8
54.89	4.9510E+4	4.2664	0.0384	-122.5
55.11	5.0010E+4	4.2681	0.0390	-133.7
55.31	5.0510E+4	4.2738	0.0392	-133.5
55.49	5.1010E+4	4.2800	0.0382	-136.7
55.71	5.1510E+4	4.2815	0.0374	-126.9
55.91	5.2010E+4	4.2909	0.0380	-120.4
56.14	5.2510E+4	4.2917	0.0372	-127.5
56.34	5.3010E+4	4.2938	0.0367	-121.6
56.52	5.3510E+4	4.2995	0.0391	-108.2
56.72	5.4010E+4	4.2994	0.0363	-134.4
56.94	5.4510E+4	4.3057	0.0366	-130.4
57.12	5.5010E+4	4.3108	0.0375	-131.8
57.30	5.5510E+4	4.3149	0.0366	-133.2
57.50	5.6010E+4	4.3182	0.0357	-141.6
57.70	5.6510E+4	4.3224	0.0356	-131.9
57.89	5.7010E+4	4.3247	0.0352	-137.7
58.07	5.7510E+4	4.3288	0.0353	-129.4
58.25	5.8010E+4	4.3317	0.0347	-139.4
58.43	5.8510E+4	4.3337	0.0365	-117.1
58.65	5.9010E+4	4.3358	0.0352	-135.8
58.85	5.9510E+4	4.3385	0.0352	-138.7
59.03	6.0010E+4	4.3426	0.0341	-136.4
59.25	6.0510E+4	4.3457	0.0343	-135.0
59.45	6.1010E+4	4.3484	0.0343	-145.4
59.63	6.1510E+4	4.3525	0.0359	-137.7
59.85	6.2010E+4	4.3541	0.0343	-129.6
60.06	6.2510E+4	4.3549	0.0353	-129.6
60.26	6.3010E+4	4.3610	0.0336	-118.7
60.46	6.3510E+4	4.3610	0.0329	-138.9
60.68	6.4010E+4	4.3626	0.0328	-135.9
60.86	6.4510E+4	4.3686	0.0323	-133.1
61.05	6.5010E+4	4.3682	0.0327	-131.8
61.24	6.5510E+4	4.3708	0.0341	-106.0
61.46	6.6010E+4	4.3743	0.0321	-136.5
61.66	6.6510E+4	4.3739	0.0339	+254.5
61.88	6.7010E+4	4.3774	0.0323	+251.2
62.09	6.7510E+4	4.3804	0.0320	-131.6
62.28	6.8010E+4	4.3807	0.0321	-139.7
62.46	6.8510E+4	4.3832	0.0342	-146.5
62.66	6.9010E+4	4.3870	0.0315	-123.4
62.88	6.9510E+4	4.3877	0.0332	-113.5
63.08	7.0010E+4	4.3917	0.0336	-123.5
63.27	7.0510E+4	4.3928	0.0308	+231.2
63.49	7.1010E+4	4.3924	0.0327	+215.5
63.71	7.1510E+4	4.3969	0.0305	-132.6
63.91	7.2010E+4	4.3954	0.0314	-151.4
64.09	7.2510E+4	4.4039	0.0304	-125.2
64.29	7.3010E+4	4.3989	0.0307	-127.3
64.47	7.3510E+4	4.4016	0.0356	-132.5
64.67	7.4010E+4	4.3951	Inf	-87.3
64.87	7.4510E+4	4.4067	0.0305	-151.4
65.14	7.5010E+4	4.4084	0.0296	-133.5
65.35	7.5510E+4	4.4070	0.0295	+241.2
65.54	7.6010E+4	4.4068	0.0295	-136.2
65.72	7.6510E+4	4.4102	0.0303	-119.0
65.90	7.7010E+4	4.4133	0.0310	-152.3
66.12	7.7510E+4	4.4149	0.0313	-151.6
66.30	7.8010E+4	4.4174	0.0309	-129.7
66.48	7.8510E+4	4.4146	0.0295	-130.5
66.70	7.9010E+4	4.4198	0.0304	-129.3
66.92	7.9510E+4	4.4184	0.0319	-144.7
67.12	8.0010E+4	4.4234	0.0300	-115.9
67.32	8.0510E+4	4.4225	0.0292	-144.0
67.50	8.1010E+4	4.4282	0.0286	-156.7
67.72	8.1510E+4	4.4164	0.0289	-141.3
67.92	8.2010E+4	4.4275	0.0302	-132.8
68.15	8.2510E+4	4.4273	0.0284	-142.3
68.35	8.3010E+4	4.4263	0.0325	-110.8
68.58	8.3510E+4	4.4289	0.0311	-108.5
68.81	8.4010E+4	4.4288	0.0294	-149.6
69.01	8.4510E+4	4.4331	0.0287	-127.4
69.21	8.5010E+4	4.4307	0.0287	-158.1
69.39	8.5510E+4	4.4324	0.0282	-156.7
69.58	8.6010E+4	4.4334	0.0291	-146.8
69.78	8.6510E+4	4.4355	0.0313	-153.7
69.98	8.7010E+4	4.4391	0.0306	-128.1
70.16	8.7510E+4	4.4405	0.0294	-151.4
70.36	8.8010E+4	4.4408	0.0284	-146.5
70.56	8.8510E+4	4.4422	0.0292	-121.5
70.76	8.9010E+4	4.4446	0.0294	-123.5
70.94	8.9510E+4	4.4429	0.0295	-130.5
71.12	9.0010E+4	4.4413	0.0280	-142.1
71.32	9.0510E+4	4.4484	0.0279	-142.5
71.51	9.1010E+4	4.4459	0.0319	-120.8
71.71	9.1510E+4	4.4481	Inf	+Inf
71.89	9.2010E+4	4.4515	0.0287	+232.1
72.09	9.2510E+4	4.4483	0.0278	-155.1
72.27	9.3010E+4	4.4497	0.0293	+204.6
72.47	9.3510E+4	4.4501	0.0278	-139.1
72.67	9.4010E+4	4.4507	0.0272	-148.8
72.89	9.4510E+4	4.4542	0.0318	+198.5
73.10	9.5010E+4	4.4525	0.0282	+205.5
73.30	9.5510E+4	4.4525	0.0304	-134.9
73.52	9.6010E+4	4.4566	0.0280	-146.1
73.75	9.6510E+4	4.4563	0.0292	+231.8
73.97	9.7010E+4	4.4539	0.0276	-137.1
74.20	9.7510E+4	4.4587	0.0277	-154.5
74.43	9.8010E+4	4.4583	0.0289	+231.4
74.62	9.8510E+4	4.4553	Inf	+213.4
74.80	9.9010E+4	4.4572	0.0304	-123.1
75.00	9.9510E+4	4.4583	0.0275	-151.1
75.20	1.0001E+5	4.4628	0.0277	-144.1
75.40	1.0051E+5	4.4594	0.0279	-162.6
75.58	1.0101E+5	4.4590	0.0271	-146.9
75.80	1.0151E+5	4.4641	0.0292	-145.7
76.01	1.0201E+5	4.4652	0.0281	-166.3
76.21	1.0251E+5	4.4675	0.0286	-124.2
76.40	1.0301E+5	4.4648	Inf	+Inf
76.58	1.0351E+5	4.4692	0.0298	-168.2
76.78	1.0401E+5	4.4651	0.0282	-158.4
76.98	1.0451E+5	4.4681	Inf	-110.5
77.16	1.0501E+5	4.4675	0.0281	-135.6
77.35	1.0551E+5	4.4682	0.0300	-152.5
77.56	1.0601E+5	4.4695	0.0288	-135.2
77.78	1.0651E+5	4.4713	0.0269	-148.6
77.98	1.0701E+5	4.4716	Inf	-101.3
78.18	1.0751E+5	4.4736	0.0273	-145.4
78.36	1.0801E+5	4.4749	0.0295	-157.9
78.56	1.0851E+5	4.4761	0.0289	-148.9
78.76	1.0901E+5	4.4787	0.0299	-158.2
78.97	1.0951E+5	4.4737	0.0285	-153.0
79.19	1.1001E+5	4.4768	0.0283	-144.6
79.37	1.1051E+5	4.4753	0.0288	-145.3
79.56	1.1101E+5	4.4754	0.0271	-148.4
79.76	1.1151E+5	4.4780	0.0272	-148.5
79.94	1.1201E+5	4.4782	0.0292	+208.5
80.14	1.1251E+5	4.4814	0.0289	-147.9
80.34	1.1301E+5	4.4811	Inf	-104.3
80.52	1.1351E+5	4.4836	0.0304	-144.1
80.74	1.1401E+5	4.4798	0.0283	-155.8
80.97	1.1451E+5	4.4809	0.0274	-155.3
81.17	1.1501E+5	4.4798	0.0299	+214.3
81.39	1.1551E+5	4.4825	0.0280	-126.3
81.58	1.1601E+5	4.4867	Inf	+207.6
81.78	1.1651E+5	4.4787	0.0286	+213.6
81.98	1.1701E+5	4.4859	0.0286	-169.7
82.18	1.1751E+5	4.4829	0.0273	-149.1
82.42	1.1801E+5	4.4833	0.0278	-161.5
82.63	1.1851E+5	4.4889	0.0325	-138.1
82.83	1.1901E+5	4.4846	0.0294	-168.1
83.03	1.1951E+5	4.4856	Inf	-172.7
83.21	1.2001E+5	4.4883	Inf	+Inf
83.40	1.2051E+5	4.4870	0.0332	-160.1
83.61	1.2101E+5	4.4870	0.0318	-161.9
83.81	1.2151E+5	4.4897	0.0304	-153.7
84.01	1.2201E+5	4.4860	0.0281	+201.2
84.23	1.2251E+5	4.4835	0.0301	-134.2
84.43	1.2301E+5	4.4915	Inf	+226.7
84.61	1.2351E+5	4.4914	0.0279	-151.0
84.81	1.2401E+5	4.4903	0.0292	-151.8
85.01	1.2451E+5	4.4870	Inf	+235.5
85.19	1.2501E+5	4.4941	0.0280	-151.6
85.39	1.2551E+5	4.4915	0.0295	-150.4
85.59	1.2601E+5	4.4898	0.0281	-158.5
85.79	1.2651E+5	4.4917	0.0291	-148.2
85.99	1.2701E+5	4.4955	0.0281	-163.4
86.19	1.2751E+5	4.4931	0.0291	+237.2
86.39	1.2801E+5	4.4941	0.0271	+185.9
86.59	1.2851E+5	4.4955	0.0282	-145.3
86.79	1.2901E+5	4.4962	0.0278	-178.3
86.97	1.2951E+5	4.4966	0.0275	-173.5
87.17	1.3001E+5	4.4959	0.0314	-138.5
87.37	1.3051E+5	4.4948	0.0293	+187.5
87.59	1.3101E+5	4.5003	0.0341	-137.9
87.79	1.3151E+5	4.4959	0.0284	-147.0
88.00	1.3201E+5	4.4944	0.0281	-150.2
88.19	1.3251E+5	4.4979	0.0284	-160.7
88.37	1.3301E+5	4.4995	Inf	+239.1
88.56	1.3351E+5	4.4944	0.0281	-167.1
88.74	1.3401E+5	4.4944	0.0357	-139.8
88.94	1.3451E+5	4.4986	0.0311	+202.2
89.14	1.3501E+5	4.4972	0.0283	-163.1
89.34	1.3551E+5	4.4992	0.0308	-146.0
89.54	1.3601E+5	4.5009	0.0288	-157.1
89.73	1.3651E+5	4.4975	0.0287	-152.1
89.92	1.3701E+5	4.4973	0.0329	-135.7
90.13	1.3751E+5	4.5057	Inf	+Inf
90.32	1.3801E+5	4.5033	0.0293	-154.7
90.52	1.3851E+5	4.5009	0.0278	+187.2
90.72	1.3901E+5	4.5047	0.0289	-166.6
90.90	1.3951E+5	4.5038	0.0302	+190.2
91.10	1.4001E+5	4.5053	0.0292	-171.7
91.28	1.4051E+5	4.5046	Inf	+Inf
91.46	1.4101E+5	4.5055	0.0292	-174.8
91.65	1.4151E+5	4.5017	0.0301	-169.4
91.83	1.4201E+5	4.5065	0.0291	-169.4
92.01	1.4251E+5	4.5071	0.0296	-157.2
92.20	1.4301E+5	4.5060	0.0297	-147.5
92.38	1.4351E+5	4.5002	0.0290	-160.9
92.56	1.4401E+5	4.5043	0.0322	-147.2
92.78	1.4451E+5	4.5081	0.0303	-150.7
93.00	1.4501E+5	4.5065	0.0309	-169.2
93.21	1.4551E+5	4.5055	0.0374	+177.0
93.41	1.4601E+5	4.5048	0.0321	+141.0
93.61	1.4651E+5	4.5060	0.0313	-156.9
93.81	1.4701E+5	4.5088	0.0308	+210.7
93.99	1.4751E+5	4.5075	0.0318	+181.2
94.17	1.4801E+5	4.5071	0.0302	-174.9
94.39	1.4851E+5	4.5087	0.0314	-148.8
94.61	1.4901E+5	4.5088	0.0324	-93.1
94.81	1.4951E+5	4.5122	0.0300	-158.0
95.04	1.5001E+5	4.5113	0.0317	-174.2
95.27	1.5051E+5	4.5099	0.0304	-171.5
95.47	1.5101E+5	4.5095	0.0305	-173.7
95.69	1.5151E+5	4.5102	0.0307	-156.7
95.87	1.5201E+5	4.5098	0.0313	-154.4
96.06	1.5251E+5	4.5143	0.0304	-167.9
96.25	1.5301E+5	4.5128	0.0301	-167.9
96.47	1.5351E+5	4.5156	0.0304	-175.6
96.67	1.5401E+5	4.5085	0.0337	+182.2
96.90	1.5451E+5	4.5132	0.0310	-169.9
97.14	1.5501E+5	4.5128	0.0339	-151.7
97.34	1.5551E+5	4.5113	0.0307	+204.9
97.57	1.5601E+5	4.5119	0.0325	+173.6
97.80	1.5651E+5	4.5128	0.0307	-165.7
98.00	1.5701E+5	4.5128	0.0328	-149.5
98.20	1.5751E+5	4.5113	0.0313	-156.7
98.42	1.5801E+5	4.5137	0.0315	-168.2
98.61	1.5851E+5	4.5142	0.0318	+206.6
98.80	1.5901E+5	4.5198	0.0340	-147.3
99.00	1.5951E+5	4.5142	0.0324	+181.0
99.20	1.6001E+5	4.5128	0.0318	-156.4
99.40	1.6051E+5	4.5156	0.0320	-162.9
99.61	1.6101E+5	4.5156	0.0315	-175.4
99.81	1.6151E+5	4.5156	0.0324	-171.4
100.01	1.6201E+5	4.5212	0.0332	-173.8
100.21	1.6251E+5	4.5198	0.0339	-175.1
100.39	1.6301E+5	4.5142	0.0321	-154.0
100.59	1.6351E+5	4.5170	0.0325	+209.6
100.78	1.6401E+5	4.5227	0.0329	-164.5
100.96	1.6451E+5	4.5198	0.0341	-159.8
101.16	1.6501E+5	4.5198	0.0320	-167.2
101.36	1.6551E+5	4.5198	0.0329	-167.1
101.54	1.6601E+5	4.5241	0.0333	+209.6
101.74	1.6651E+5	4.5212	0.0328	-180.6
101.94	1.6701E+5	4.5198	0.0320	-163.8
102.12	1.6751E+5	4.5156	0.0326	+199.5
102.31	1.6801E+5	4.5198	0.0322	-172.5
102.49	1.6851E+5	4.5241	0.0332	-178.1
102.67	1.6901E+5	4.5241	0.0343	+180.8
102.89	1.6951E+5	4.5212	0.0323	-164.0
103.09	1.7001E+5	4.5241	Inf	-166.0
103.27	1.7051E+5	4.5227	0.0331	-160.8
103.45	1.7101E+5	4.5227	Inf	-145.0
103.64	1.7151E+5	4.5227	0.0335	-177.6
103.84	1.7201E+5	4.5241	0.0336	-166.4
104.02	1.7251E+5	4.5255	Inf	-145.0
104.20	1.7301E+5	4.5241	Inf	+Inf
104.40	1.7351E+5	4.5227	0.0336	-173.5
104.59	1.7401E+5	4.5212	0.0331	-157.1
104.78	1.7451E+5	4.5241	0.0374	-195.8
104.99	1.7501E+5	4.5241	0.0353	+212.8
105.19	1.7551E+5	4.5255	0.0337	+182.5
105.38	1.7601E+5	4.5283	Inf	-142.5
105.57	1.7651E+5	4.5212	Inf	-141.2
105.75	1.7701E+5	4.5241	0.0355	+180.7
105.95	1.7751E+5	4.5255	0.0368	-146.4
106.15	1.7801E+5	4.5227	0.0377	-202.8
106.35	1.7851E+5	4.5255	0.0369	-183.1
106.55	1.7901E+5	4.5241	0.0337	-161.5
106.75	1.7951E+5	4.5297	Inf	+206.7
106.93	1.8001E+5	4.5255	Inf	+207.2
107.11	1.8051E+5	4.5311	Inf	-152.1
107.30	1.8101E+5	4.5297	Inf	+165.6
107.48	1.8151E+5	4.5311	Inf	-149.2
107.66	1.8201E+5	4.5269	0.0358	+185.1
107.86	1.8251E+5	4.5255	0.0340	+173.3
108.06	1.8301E+5	4.5283	0.0380	+211.8
108.26	1.8351E+5	4.5269	Inf	+Inf
108.44	1.8401E+5	4.5283	0.0359	+212.2
108.64	1.8451E+5	4.5269	0.0353	-165.1
108.83	1.8501E+5	4.5255	0.0356	-157.9
109.01	1.8551E+5	4.5269	Inf	+Inf
109.19	1.8601E+5	4.5269	Inf	+221.7
109.38	1.8651E+5	4.5297	0.0353	-168.1
109.56	1.8701E+5	4.5311	Inf	+Inf
109.74	1.8751E+5	4.5297	0.0355	-172.7
109.93	1.8801E+5	4.5283	0.0369	+177.0
110.12	1.8851E+5	4.5297	Inf	+Inf
110.31	1.8901E+5	4.5297	Inf	+Inf
110.49	1.8951E+5	4.5283	0.0355	-169.4
110.69	1.9001E+5	4.5283	0.0362	-172.8
110.89	1.9051E+5	4.5297	0.0373	-185.2
111.07	1.9101E+5	4.5283	0.0365	-157.8
111.25	1.9151E+5	4.5311	Inf	+Inf
111.44	1.9201E+5	4.5326	Inf	+Inf
111.62	1.9251E+5	4.5283	Inf	-174.2
111.80	1.9301E+5	4.5354	0.0358	-171.1
112.00	1.9351E+5	4.5311	0.0369	-155.0
112.20	1.9401E+5	4.5311	0.0376	-157.4
112.42	1.9451E+5	4.5297	Inf	+219.1
112.62	1.9501E+5	4.5283	0.0389	-146.6
112.82	1.9551E+5	4.5340	0.0378	-182.1
113.02	1.9601E+5	4.5340	0.0373	-156.3
113.22	1.9651E+5	4.5283	0.0372	-147.3
113.40	1.9701E+5	4.5326	0.0368	-160.6
113.60	1.9751E+5	4.5354	0.0382	-179.4
113.80	1.9801E+5	4.5297	0.0379	-170.1
113.98	1.9851E+5	4.5340	0.0409	+202.2
114.18	1.9901E+5	4.5297	0.0378	-164.3
114.38	1.9951E+5	4.5311	0.0375	+188.6
114.58	2.0001E+5	4.5326	0.0377	-167.8
114.76	2.0051E+5	4.5326	0.0380	+164.3
114.95	2.0101E+5	4.5297	0.0382	-163.3
115.13	2.0151E+5	4.5354	Inf	-163.4
115.31	2.0201E+5	4.5340	0.0398	+167.7
115.51	2.0251E+5	4.5326	0.0390	-152.5
115.69	2.0301E+5	4.5311	Inf	-138.0
115.88	2.0351E+5	4.5326	0.0388	-175.9
116.08	2.0401E+5	4.5326	0.0377	-176.2
116.26	2.0451E+5	4.5311	0.0381	-175.1
116.44	2.0501E+5	4.5311	0.0383	-179.2
116.63	2.0551E+5	4.5354	0.0415	+163.9
116.84	2.0601E+5	4.5340	0.0428	+162.8
117.04	2.0651E+5	4.5340	0.0395	-163.1
117.24	2.0701E+5	4.5368	Inf	+Inf
117.43	2.0751E+5	4.5340	0.0394	-166.1
117.61	2.0801E+5	4.5326	0.0416	-146.8
117.81	2.0851E+5	4.5297	0.0403	+163.9
117.99	2.0901E+5	4.5340	0.0403	-166.2
118.19	2.0951E+5	4.5354	0.0408	+164.1
118.39	2.1001E+5	4.5326	0.0405	-156.7
118.57	2.1051E+5	4.5340	0.0408	-149.0
118.76	2.1101E+5	4.5368	0.0437	-187.5
118.95	2.1151E+5	4.5311	0.0419	-179.2
119.16	2.1201E+5	4.5311	0.0401	-162.9
119.36	2.1251E+5	4.5354	0.0416	-169.7
119.56	2.1301E+5	4.5326	0.0454	+151.8
119.75	2.1351E+5	4.5354	0.0405	+180.6
119.95	2.1401E+5	4.5354	0.0422	+174.2
120.15	2.1451E+5	4.5297	0.0428	+156.9
120.33	2.1501E+5	4.5396	0.0399	+186.6
120.54	2.1551E+5	4.5340	0.0425	-143.4
120.74	2.1601E+5	4.5326	0.0423	-152.6
120.92	2.1651E+5	4.5311	0.0419	-173.2
121.10	2.1701E+5	4.5368	0.0429	-166.3
121.29	2.1751E+5	4.5396	0.0417	-175.3
121.48	2.1801E+5	4.5354	0.0426	-156.4
121.68	2.1851E+5	4.5340	0.0430	-145.7
121.87	2.1901E+5	4.5396	0.0427	-160.4
122.05	2.1951E+5	4.5340	0.0426	-161.1
122.23	2.2001E+5	4.5368	0.0446	+159.3
122.43	2.2051E+5	4.5382	0.0430	+178.5
122.63	2.2101E+5	4.5354	0.0461	+153.9
122.83	2.2151E+5	4.5340	0.0433	-167.9
123.03	2.2201E+5	4.5396	0.0442	-167.3
123.21	2.2251E+5	4.5354	0.0435	-169.4
123.40	2.2301E+5	4.5368	0.0441	-174.4
123.58	2.2351E+5	4.5382	0.0451	-153.9
123.80	2.2401E+5	4.5368	0.0456	-158.9
123.98	2.2451E+5	4.5326	0.0460	-152.5
124.18	2.2501E+5	4.5382	0.0453	-165.8
124.38	2.2551E+5	4.5425	0.0459	-144.9
124.58	2.2601E+5	4.5354	0.0462	-179.8
124.79	2.2651E+5	4.5354	0.0456	-166.0
124.99	2.2701E+5	4.5326	0.0446	-169.3
125.18	2.2751E+5	4.5354	0.0447	-153.9
125.36	2.2801E+5	4.5340	0.0472	-158.2
125.56	2.2851E+5	4.5382	0.0446	-176.3
125.76	2.2901E+5	4.5354	0.0456	+170.2
125.94	2.2951E+5	4.5368	0.0464	-139.6
126.14	2.3001E+5	4.5396	0.0472	+181.3
126.32	2.3051E+5	4.5410	0.0457	+179.4
126.56	2.3101E+5	4.5354	0.0456	-162.9
126.76	2.3151E+5	4.5396	0.0464	-165.6
126.97	2.3201E+5	4.5368	Inf	-149.9
127.16	2.3251E+5	4.5396	0.0466	-179.7
127.34	2.3301E+5	4.5467	0.0476	-179.6
127.57	2.3351E+5	4.5410	0.0490	-181.1
127.79	2.3401E+5	4.5354	0.0458	-168.6
128.00	2.3451E+5	4.5354	0.0472	-169.6
128.20	2.3501E+5	4.5354	0.0463	-154.6
128.39	2.3551E+5	4.5396	0.0460	+195.6
128.57	2.3601E+5	4.5354	0.0459	-167.8
128.77	2.3651E+5	4.5425	0.0486	-168.9
129.00	2.3701E+5	4.5396	0.0491	+173.4
129.23	2.3751E+5	4.5453	0.0464	-172.5
129.45	2.3801E+5	4.5382	0.0474	+176.5
129.68	2.3851E+5	4.5382	0.0480	-166.4
129.87	2.3901E+5	4.5396	0.0475	-165.6
130.05	2.3951E+5	4.5382	0.0502	-172.7
130.25	2.4001E+5	4.5425	0.0471	-170.4
130.48	2.4051E+5	4.5439	0.0474	-184.4
130.66	2.4101E+5	4.5396	0.0486	-166.8
130.90	2.4151E+5	4.5382	0.0489	+178.2
131.10	2.4201E+5	4.5382	Inf	+179.6
131.28	2.4251E+5	4.5396	Inf	-167.1
131.46	2.4301E+5	4.5439	0.0493	-173.0
131.66	2.4351E+5	4.5410	0.0495	+174.7
131.84	2.4401E+5	4.5439	0.0472	+194.3
132.04	2.4451E+5	4.5425	Inf	-180.6
132.23	2.4501E+5	4.5453	0.0483	-176.6
132.43	2.4551E+5	4.5396	0.0500	-159.7
132.64	2.4601E+5	4.5453	0.0478	-183.1
132.86	2.4651E+5	4.5396	Inf	-163.6
133.06	2.4701E+5	4.5453	0.0511	-167.0
133.28	2.4751E+5	4.5453	Inf	-169.1
133.46	2.4801E+5	4.5368	0.0522	+177.6
133.67	2.4851E+5	4.5410	0.0509	-171.3
133.89	2.4901E+5	4.5453	Inf	+Inf
134.07	2.4951E+5	4.5396	0.0505	-166.1
134.29	2.5001E+5	4.5467	0.0501	+189.3
134.51	2.5051E+5	4.5354	Inf	+Inf
134.71	2.5101E+5	4.5453	0.0532	+176.5
134.92	2.5151E+5	4.5439	Inf	+173.4
135.10	2.5201E+5	4.5396	0.0529	-171.4
135.34	2.5251E+5	4.5396	0.0518	-167.0
135.52	2.5301E+5	4.5410	Inf	+Inf
135.74	2.5351E+5	4.5439	0.0537	-165.5
135.94	2.5401E+5	4.5453	Inf	+178.2
136.12	2.5451E+5	4.5453	Inf	+Inf
136.30	2.5501E+5	4.5425	0.0535	+177.7
136.49	2.5551E+5	4.5368	0.0532	-170.7
136.68	2.5601E+5	4.5425	Inf	+Inf
136.88	2.5651E+5	4.5410	0.0540	-169.9
137.07	2.5701E+5	4.5439	0.0541	-170.4
137.25	2.5751E+5	4.5467	0.0542	-180.3
137.43	2.5801E+5	4.5439	Inf	+Inf
137.62	2.5851E+5	4.5382	Inf	+194.2
137.81	2.5901E+5	4.5467	Inf	+190.3
138.00	2.5951E+5	4.5425	Inf	-163.5
138.16	2.6001E+5	4.5425	0.0579	-166.5
138.37	2.6051E+5	4.5382	0.0569	-175.3
138.60	2.6101E+5	4.5467	Inf	+Inf
138.80	2.6151E+5	4.5439	0.0548	-180.1
139.00	2.6201E+5	4.5425	0.0560	-173.7
139.20	2.6251E+5	4.5425	Inf	+Inf
139.38	2.6301E+5	4.5396	0.0609	-164.3
139.59	2.6351E+5	4.5354	Inf	+182.7
139.79	2.6401E+5	4.5439	Inf	+183.7
140.00	2.6451E+5	4.5425	0.0569	-169.3
140.19	2.6501E+5	4.5481	0.0577	-172.4
140.39	2.6551E+5	4.5425	0.0581	-177.1
140.58	2.6601E+5	4.5396	0.0563	+187.8
140.81	2.6651E+5	4.5467	Inf	+179.7
141.01	2.6701E+5	4.5453	0.0610	+195.6
141.22	2.6751E+5	4.5410	0.0586	+186.4
141.42	2.6801E+5	4.5467	Inf	+Inf
141.61	2.6851E+5	4.5453	0.0611	-178.7
141.81	2.6901E+5	4.5467	0.0602	+195.6
141.99	2.6951E+5	4.5410	0.0603	-173.5
142.17	2.7001E+5	4.5396	Inf	+Inf
142.37	2.7051E+5	4.5439	0.0589	-173.0
142.59	2.7101E+5	4.5410	0.0584	+181.1
142.79	2.7151E+5	4.5453	0.0612	-174.4
142.99	2.7201E+5	4.5382	Inf	+Inf
143.20	2.7251E+5	4.5410	Inf	-171.1
143.40	2.7301E+5	4.5396	0.0607	-169.7
143.60	2.7351E+5	4.5425	0.0637	+192.1
143.84	2.7401E+5	4.5467	0.0618	-168.7
144.04	2.7451E+5	4.5439	0.0621	-170.1
144.22	2.7501E+5	4.5481	Inf	-183.9
144.40	2.7551E+5	4.5439	0.0625	-166.2
144.59	2.7601E+5	4.5495	0.0654	+181.6
144.78	2.7651E+5	4.5410	0.0646	+182.0
144.97	2.7701E+5	4.5453	Inf	+178.1
145.15	2.7751E+5	4.5538	0.0635	-162.3
145.37	2.7801E+5	4.5481	0.0675	-171.9
145.57	2.7851E+5	4.5396	0.0639	-173.7
145.80	2.7901E+5	4.5495	0.0650	-169.7
146.01	2.7951E+5	4.5467	0.0645	-172.1
146.20	2.8001E+5	4.5509	0.0644	-174.2
146.38	2.8051E+5	4.5368	0.0656	-175.2
146.58	2.8101E+5	4.5481	0.0647	+170.8
146.78	2.8151E+5	4.5467	Inf	+174.1
146.96	2.8201E+5	4.5453	0.0660	-168.9
147.16	2.8251E+5	4.5509	0.0661	-171.4
147.34	2.8301E+5	4.5439	0.0693	+198.4
147.54	2.8351E+5	4.5396	0.0669	-179.4
147.78	2.8401E+5	4.5524	0.0668	-170.1
147.98	2.8451E+5	4.5509	Inf	-164.2
148.16	2.8501E+5	4.5481	Inf	-178.0
148.34	2.8551E+5	4.5396	0.0673	-171.8
148.58	2.8601E+5	4.5410	Inf	-162.8
148.78	2.8651E+5	4.5425	0.0687	-174.1
148.97	2.8701E+5	4.5410	0.0683	-171.6
149.18	2.8751E+5	4.5481	0.0688	-167.8
149.37	2.8801E+5	4.5538	0.0697	-168.2
149.56	2.8851E+5	4.5552	0.0697	-169.7
149.74	2.8901E+5	4.5495	0.0715	-170.4
149.94	2.8951E+5	4.5453	0.0692	-176.0
150.14	2.9001E+5	4.5467	Inf	+183.6
150.32	2.9051E+5	4.5453	Inf	+177.9
150.50	2.9101E+5	4.5410	0.0711	+177.0
150.71	2.9151E+5	4.5495	0.0706	-173.7
150.89	2.9201E+5	4.5467	0.0708	-172.0
151.07	2.9251E+5	4.5481	0.0734	-178.3
151.27	2.9301E+5	4.5453	0.0724	-182.2
151.49	2.9351E+5	4.5524	0.0730	-165.1
151.69	2.9401E+5	4.5495	0.0806	-169.9
151.90	2.9451E+5	4.5410	0.0722	+196.0
152.10	2.9501E+5	4.5439	0.0753	+197.0
152.30	2.9551E+5	4.5481	0.0733	+194.7
152.50	2.9601E+5	4.5439	0.0746	-183.9
152.70	2.9651E+5	4.5481	0.0752	-181.4
152.88	2.9701E+5	4.5382	0.0789	-169.7
153.12	2.9751E+5	4.5538	0.0770	+169.4
153.33	2.9801E+5	4.5396	0.0767	-174.9
153.53	2.9851E+5	4.5410	0.0759	-165.6
153.73	2.9901E+5	4.5439	0.0749	-169.3
153.93	2.9951E+5	4.5425	0.0770	+194.9
154.13	3.0001E+5	4.5509	0.0760	-172.5
154.31	3.0051E+5	4.5439	0.0766	-173.4
154.50	3.0101E+5	4.5481	Inf	-167.8
154.68	3.0151E+5	4.5382	0.0768	-179.9
154.88	3.0201E+5	4.5538	0.0764	-176.3
155.08	3.0251E+5	4.5410	0.0778	-170.1
155.28	3.0301E+5	4.5495	0.0779	-177.8
155.46	3.0351E+5	4.5467	0.0855	+180.4
155.66	3.0401E+5	4.5524	0.0794	-169.8
155.86	3.0451E+5	4.5538	0.0770	-176.9
156.08	3.0501E+5	4.5354	0.0795	-174.5
156.29	3.0551E+5	4.5467	0.0821	-169.9
156.53	3.0601E+5	4.5410	0.0793	-171.0
156.73	3.0651E+5	4.5509	0.0824	-166.5
156.93	3.0701E+5	4.5495	0.0801	-175.6
157.12	3.0751E+5	4.5580	Inf	-162.5
157.31	3.0801E+5	4.5538	0.0828	-168.0
157.51	3.0851E+5	4.5509	0.0829	-171.8
157.69	3.0901E+5	4.5524	0.0833	-181.2
157.87	3.0951E+5	4.5382	0.0830	-170.2
158.07	3.1001E+5	4.5481	0.0851	-174.0
158.29	3.1051E+5	4.5425	0.0861	-179.8
158.49	3.1101E+5	4.5481	0.0940	-166.1
158.69	3.1151E+5	4.5425	Inf	+181.2
158.87	3.1201E+5	4.5538	0.0862	-175.6
159.07	3.1251E+5	4.5453	Inf	-167.6
159.25	3.1301E+5	4.5453	0.0869	-179.0
159.44	3.1351E+5	4.5509	0.0866	-169.7
159.62	3.1401E+5	4.5509	0.0883	-176.6
159.82	3.1451E+5	4.5524	0.0970	-175.8
160.02	3.1501E+5	4.5425	0.0876	-172.7
160.22	3.1551E+5	4.5509	0.0917	-163.6
160.42	3.1601E+5	4.5509	0.1045	+187.3
160.62	3.1651E+5	4.5495	0.1002	+188.7
160.82	3.1701E+5	4.5495	0.0883	-173.1
161.02	3.1751E+5	4.5481	0.0910	-175.6
161.22	3.1801E+5	4.5453	0.0915	-171.9
161.41	3.1851E+5	4.5467	0.0908	-173.6
161.61	3.1901E+5	4.5382	Inf	+180.2
161.81	3.1951E+5	4.5439	0.0959	-169.9
162.05	3.2001E+5	4.5425	Inf	-169.7
162.23	3.2051E+5	4.5453	0.0957	-167.4
162.41	3.2101E+5	4.5467	0.0914	-169.9
162.61	3.2151E+5	4.5453	0.0925	-178.3
162.80	3.2201E+5	4.5467	0.0936	-175.7
163.00	3.2251E+5	4.5524	0.0984	-170.9
163.19	3.2301E+5	4.5481	0.0960	-171.9
163.40	3.2351E+5	4.5594	0.0953	-175.7
163.59	3.2401E+5	4.5524	0.1124	+186.8
163.79	3.2451E+5	4.5509	0.0983	-165.7
163.99	3.2501E+5	4.5509	0.0975	-175.2
164.19	3.2551E+5	4.5481	0.1019	-168.8
164.39	3.2601E+5	4.5453	0.1025	-169.9
164.58	3.2651E+5	4.5396	0.1027	-169.4
164.81	3.2701E+5	4.5453	0.0999	-170.4
165.04	3.2751E+5	4.5453	0.1002	-172.5
165.22	3.2801E+5	4.5396	0.1029	-165.7
165.44	3.2851E+5	4.5439	0.1039	-171.6
165.64	3.2901E+5	4.5425	0.1099	-166.6
165.84	3.2951E+5	4.5439	0.1026	-171.2
166.04	3.3001E+5	4.5481	0.1080	-165.7
166.24	3.3051E+5	4.5467	0.1030	-175.3
166.46	3.3101E+5	4.5524	0.1063	-171.0
166.65	3.3151E+5	4.5509	0.1059	-167.1
166.84	3.3201E+5	4.5467	0.1082	-168.7
167.04	3.3251E+5	4.5425	0.1069	-167.9
167.22	3.3301E+5	4.5481	0.1079	-173.1
167.40	3.3351E+5	4.5410	0.1095	-172.3
167.60	3.3401E+5	4.5439	0.1090	-169.8
167.79	3.3451E+5	4.5580	0.1117	-165.5
167.99	3.3501E+5	4.5439	0.1049	-175.9
168.19	3.3551E+5	4.5410	0.1151	-165.3
168.38	3.3601E+5	4.5382	0.1117	-167.3
168.62	3.3651E+5	4.5566	0.1071	-172.2
168.83	3.3701E+5	4.5538	0.1124	-167.6
169.03	3.3751E+5	4.5495	0.1159	-166.5
169.23	3.3801E+5	4.5467	0.1118	-172.4
169.43	3.3851E+5	4.5382	0.1157	-167.5
169.66	3.3901E+5	4.5481	0.1141	-171.5
169.88	3.3951E+5	4.5410	0.1110	-174.4
170.08	3.4001E+5	4.5467	0.1119	-173.0
170.28	3.4051E+5	4.5509	0.1135	-172.0
170.48	3.4101E+5	4.5439	0.1230	-167.5
170.68	3.4151E+5	4.5495	0.1157	-171.5
170.90	3.4201E+5	4.5453	0.1143	-177.5
171.09	3.4251E+5	4.5410	0.1202	-173.7
171.29	3.4301E+5	4.5453	0.1231	-168.4
171.49	3.4351E+5	4.5410	0.1229	-171.2
171.68	3.4401E+5	4.5396	0.1230	-170.1
171.88	3.4451E+5	4.5538	0.1249	-169.0
172.09	3.4501E+5	4.5410	0.1290	-168.8
172.29	3.4551E+5	4.5524	0.1187	-174.1
172.49	3.4601E+5	4.5495	0.1284	-164.1
172.69	3.4651E+5	4.5552	0.1192	-171.0
172.89	3.4701E+5	4.5481	0.1448	+194.2
173.09	3.4751E+5	4.5425	0.1267	-169.5
173.29	3.4801E+5	4.5396	0.1242	-169.0
173.51	3.4851E+5	4.5495	0.1336	-167.1
173.72	3.4901E+5	4.5509	0.1470	-171.0
173.92	3.4951E+5	4.5467	0.1390	-165.4
174.12	3.5001E+5	4.5509	0.1327	-172.7
174.32	3.5051E+5	4.5509	0.1343	-168.0
174.52	3.5101E+5	4.5509	0.1414	-168.8
174.72	3.5151E+5	4.5410	0.1403	-163.6
174.92	3.5201E+5	4.5495	0.1381	-171.1
175.12	3.5251E+5	4.5439	0.1409	-167.8
175.32	3.5301E+5	4.5495	0.1356	-168.9
175.52	3.5351E+5	4.5495	0.1404	-169.9
175.72	3.5401E+5	4.5481	0.1432	-166.9
175.92	3.5451E+5	4.5410	0.1336	-170.8
176.12	3.5501E+5	4.5453	0.1416	-166.8
176.32	3.5551E+5	4.5439	0.1358	-173.0
176.53	3.5601E+5	4.5439	0.1439	-168.6
176.73	3.5651E+5	4.5481	0.1485	-170.7
176.93	3.5701E+5	4.5425	0.1427	-169.2
177.13	3.5751E+5	4.5396	0.1472	-168.4
177.35	3.5801E+5	4.5453	0.1485	-166.3
177.58	3.5851E+5	4.5396	0.1425	-169.9
177.81	3.5901E+5	4.5481	0.1518	-169.9
178.03	3.5951E+5	4.5425	0.1478	-169.7
178.23	3.6001E+5	4.5453	0.1445	-170.0
178.43	3.6051E+5	4.5467	0.1543	-164.6
178.63	3.6101E+5	4.5439	0.1539	-162.5
178.81	3.6151E+5	4.5481	0.1497	-167.3
179.01	3.6201E+5	4.5410	0.1594	-164.4
179.21	3.6251E+5	4.5354	0.1508	-169.1
179.44	3.6301E+5	4.5425	0.1674	-166.7
179.66	3.6351E+5	4.5382	0.1673	-167.5
179.86	3.6401E+5	4.5311	0.1618	-167.9
180.06	3.6451E+5	4.5326	0.1661	-164.9
180.26	3.6501E+5	4.5495	0.1634	-168.3
180.48	3.6551E+5	4.5382	0.1622	-168.0
180.71	3.6601E+5	4.5410	0.1642	-166.0
180.92	3.6651E+5	4.5396	0.1661	-167.7
181.14	3.6701E+5	4.5467	0.1684	-163.4
181.36	3.6751E+5	4.5382	0.1749	-165.6
181.57	3.6801E+5	4.5326	0.1645	-167.5
181.77	3.6851E+5	4.5453	0.1755	-170.0
181.99	3.6901E+5	4.5368	0.1724	-169.8
182.22	3.6951E+5	4.5382	0.1781	-166.7
182.42	3.7001E+5	4.5439	0.1769	-164.0
182.64	3.7051E+5	4.5354	0.1779	-167.9
182.85	3.7101E+5	4.5396	0.1828	-167.1
183.05	3.7151E+5	4.5368	0.1802	-165.0
183.25	3.7201E+5	4.5354	0.1870	-164.3
183.45	3.7251E+5	4.5326	0.1894	-161.5
183.65	3.7301E+5	4.5382	0.1862	-166.1
183.85	3.7351E+5	4.5311	0.1872	-166.6
184.03	3.7401E+5	4.5354	0.1880	-163.7
184.23	3.7451E+5	4.5368	0.1954	-164.7
184.43	3.7501E+5	4.5340	0.1897	-166.1
184.63	3.7551E+5	4.5340	0.2025	-159.2
184.83	3.7601E+5	4.5382	0.2043	-164.9
185.03	3.7651E+5	4.5283	0.1927	-166.3
185.23	3.7701E+5	4.5340	0.2032	-166.1
185.43	3.7751E+5	4.5297	0.2062	-164.3
185.63	3.7801E+5	4.5283	0.2111	-161.6
185.83	3.7851E+5	4.5311	0.2107	-160.4
186.01	3.7901E+5	4.5368	0.2149	-162.6
186.23	3.7951E+5	4.5340	0.2141	-161.4
186.43	3.8001E+5	4.5354	0.2207	-162.0
186.63	3.8051E+5	4.5326	0.2212	-164.6
186.81	3.8101E+5	4.5396	0.2184	-160.9
187.01	3.8151E+5	4.5311	0.2266	-159.6
187.21	3.8201E+5	4.5255	0.2155	-160.2
187.41	3.8251E+5	4.5368	0.2215	-163.1
187.61	3.8301E+5	4.5354	0.2264	-161.2
187.81	3.8351E+5	4.5255	0.2258	-162.8
187.99	3.8401E+5	4.5297	0.2314	-158.7
188.19	3.8451E+5	4.5311	0.2300	-160.6
188.39	3.8501E+5	4.5269	0.2396	-159.9
188.59	3.8551E+5	4.5283	0.2295	-161.6
188.79	3.8601E+5	4.5283	0.2427	-161.5
188.99	3.8651E+5	4.5297	0.2434	-160.9
189.17	3.8701E+5	4.5326	0.2403	-158.8
189.37	3.8751E+5	4.5311	0.2443	-159.0
189.59	3.8801E+5	4.5227	0.2469	-158.8
189.79	3.8851E+5	4.5297	0.2549	-158.3
189.99	3.8901E+5	4.5241	0.2557	-157.7
190.19	3.8951E+5	4.5269	0.2638	-155.8
190.39	3.9001E+5	4.5269	0.2582	-158.2
190.59	3.9051E+5	4.5283	0.2550	-160.9
190.79	3.9101E+5	4.5241	0.2670	-160.2
190.99	3.9151E+5	4.5255	0.2757	-158.6
191.19	3.9201E+5	4.5269	0.2747	-157.2
191.39	3.9251E+5	4.5241	0.2749	-157.5
191.57	3.9301E+5	4.5255	0.2773	-153.7
191.77	3.9351E+5	4.5269	0.2928	-157.8
191.97	3.9401E+5	4.5269	0.2943	-151.9
192.15	3.9451E+5	4.5269	0.2936	-152.1
192.33	3.9501E+5	4.5326	0.2941	-156.8
192.52	3.9551E+5	4.5297	0.2984	-154.6
192.72	3.9601E+5	4.5241	0.2998	-153.8
192.90	3.9651E+5	4.5297	0.3120	-150.2
193.10	3.9701E+5	4.5269	0.3011	-154.7
193.30	3.9751E+5	4.5283	0.3167	-153.6
193.50	3.9801E+5	4.5241	0.3153	-156.5
193.70	3.9851E+5	4.5227	0.3146	-152.8
193.88	3.9901E+5	4.5227	0.3221	-152.4
194.08	3.9951E+5	4.5311	0.3129	-152.1
194.30	4.0001E+5	4.5283	0.3317	-149.4
194.50	4.0051E+5	4.5269	0.3355	-150.3
194.69	4.0101E+5	4.5241	0.3395	-149.7
194.89	4.0151E+5	4.5269	0.3509	-151.0
195.09	4.0201E+5	4.5269	0.3531	-148.3
195.29	4.0251E+5	4.5227	0.3614	-150.8
195.49	4.0301E+5	4.5255	0.3629	-152.2
195.68	4.0351E+5	4.5297	0.3778	-149.7
195.88	4.0401E+5	4.5198	0.3682	-150.9
196.07	4.0451E+5	4.5227	0.3700	-145.4
196.28	4.0501E+5	4.5198	0.3929	-146.9
196.47	4.0551E+5	4.5255	0.3906	-147.5
196.67	4.0601E+5	4.5227	0.3957	-145.1
196.87	4.0651E+5	4.5241	0.4044	-145.8
197.07	4.0701E+5	4.5241	0.4095	-144.3
197.27	4.0751E+5	4.5269	0.4095	-145.7
197.46	4.0801E+5	4.5283	0.4143	-143.3
197.66	4.0851E+5	4.5297	0.4355	-142.3
197.85	4.0901E+5	4.5297	0.4276	-142.1
198.05	4.0951E+5	4.5283	0.4412	-142.1
198.25	4.1001E+5	4.5255	0.4359	-143.0
198.45	4.1051E+5	4.5311	0.4537	-138.8
198.65	4.1101E+5	4.5255	0.4544	-138.3
198.85	4.1151E+5	4.5283	0.4707	-138.5
199.05	4.1201E+5	4.5269	0.4721	-139.2
199.25	4.1251E+5	4.5255	0.4760	-137.1
199.45	4.1301E+5	4.5269	0.4837	-135.8
199.65	4.1351E+5	4.5227	0.4851	-135.1
199.83	4.1401E+5	4.5269	0.4981	-135.1
200.03	4.1451E+5	4.5311	0.5152	-133.8
200.23	4.1501E+5	4.5269	0.5217	-132.2
200.43	4.1551E+5	4.5227	0.5282	-131.4
200.63	4.1601E+5	4.5241	0.5275	-131.9
200.83	4.1651E+5	4.5297	0.5474	-130.1
201.03	4.1701E+5	4.5297	0.5554	-131.4
201.23	4.1751E+5	4.5227	0.5651	-128.3
201.43	4.1801E+5	4.5297	0.5506	-128.4
201.63	4.1851E+5	4.5241	0.5718	-127.0
201.83	4.1901E+5	4.5311	0.5835	-125.9
202.03	4.1951E+5	4.5255	0.6037	-122.2
202.23	4.2001E+5	4.5311	0.6064	-121.2
202.43	4.2051E+5	4.5311	0.6169	-119.8
202.63	4.2101E+5	4.5269	0.6095	-118.0
202.83	4.2151E+5	4.5297	0.6406	-117.5
203.03	4.2201E+5	4.5255	0.6439	-117.2
203.23	4.2251E+5	4.5354	0.6432	-116.3
203.43	4.2301E+5	4.5255	0.6521	-114.1
203.63	4.2351E+5	4.5269	0.6599	-112.8
203.83	4.2401E+5	4.5269	0.6686	-112.9
204.03	4.2451E+5	4.5326	0.6702	-111.4
204.22	4.2501E+5	4.5354	0.6716	-107.6
204.41	4.2551E+5	4.5227	0.6869	-107.6
204.61	4.2601E+5	4.5326	0.6794	-105.2
204.81	4.2651E+5	4.5255	0.6863	-105.7
205.01	4.2701E+5	4.5283	0.6899	-103.3
205.21	4.2751E+5	4.5297	0.6916	-98.5
205.39	4.2801E+5	4.5297	0.7040	-98.3
205.59	4.2851E+5	4.5311	0.7034	-98.4
205.77	4.2901E+5	4.5283	0.7023	-95.6
205.97	4.2951E+5	4.5340	0.7122	-95.8
206.17	4.3001E+5	4.5311	0.7012	-92.8
206.37	4.3051E+5	4.5241	0.7037	-91.3
206.57	4.3101E+5	4.5255	0.7128	-88.6
206.77	4.3151E+5	4.5311	0.7145	-87.9
206.97	4.3201E+5	4.5326	0.7146	-86.0
207.15	4.3251E+5	4.5311	0.7039	-85.3
207.35	4.3301E+5	4.5269	0.7115	-82.1
207.55	4.3351E+5	4.5297	0.6978	-79.5
207.75	4.3401E+5	4.5283	0.7039	-79.5
207.95	4.3451E+5	4.5326	0.7033	-78.4
208.13	4.3501E+5	4.5340	0.6927	-75.9
208.33	4.3551E+5	4.5297	0.6957	-77.7
208.53	4.3601E+5	4.5283	0.6725	-74.4
208.73	4.3651E+5	4.5311	0.6682	-71.3
208.93	4.3701E+5	4.5326	0.6744	-72.6
209.13	4.3751E+5	4.5297	0.6698	-69.8
209.33	4.3801E+5	4.5297	0.6541	-68.7
209.53	4.3851E+5	4.5297	0.6616	-65.3
209.73	4.3901E+5	4.5368	0.6483	-64.2
209.93	4.3951E+5	4.5297	0.6255	-63.7
210.13	4.4001E+5	4.5311	0.6337	-61.4
210.34	4.4051E+5	4.5340	0.6266	-61.2
210.54	4.4101E+5	4.5340	0.5982	-61.7
210.76	4.4151E+5	4.5311	0.6027	-59.0
210.96	4.4201E+5	4.5311	0.5991	-56.2
211.16	4.4251E+5	4.5311	0.5954	-56.1
211.36	4.4301E+5	4.5297	0.5846	-55.0
211.56	4.4351E+5	4.5354	0.5819	-53.9
211.76	4.4401E+5	4.5326	0.5725	-52.0
211.96	4.4451E+5	4.5326	0.5670	-53.1
212.18	4.4501E+5	4.5354	0.5556	-51.5
212.37	4.4551E+5	4.5354	0.5425	-51.3
212.57	4.4601E+5	4.5311	0.5385	-50.4
212.77	4.4651E+5	4.5396	0.5416	-49.1
212.97	4.4701E+5	4.5326	0.5357	-49.6
213.17	4.4751E+5	4.5396	0.5135	-48.1
213.37	4.4801E+5	4.5283	0.5227	-45.4
213.57	4.4851E+5	4.5410	0.5100	-45.4
213.79	4.4901E+5	4.5340	0.5012	-47.5
214.02	4.4951E+5	4.5368	0.4961	-44.1
214.22	4.5001E+5	4.5340	0.4962	-45.0
214.40	4.5051E+5	4.5354	0.4824	-44.2
214.60	4.5101E+5	4.5368	0.4750	-41.7
214.80	4.5151E+5	4.5326	0.4651	-41.0
215.00	4.5201E+5	4.5255	0.4732	-40.5
215.20	4.5251E+5	4.5340	0.4568	-42.8
215.40	4.5301E+5	4.5410	0.4517	-39.7
215.62	4.5351E+5	4.5396	0.4361	-40.2
215.83	4.5401E+5	4.5297	0.4436	-37.7
216.03	4.5451E+5	4.5311	0.4258	-40.1
216.23	4.5501E+5	4.5340	0.4380	-37.9
216.43	4.5551E+5	4.5326	0.4126	-36.7
216.63	4.5601E+5	4.5311	0.4165	-37.5
216.83	4.5651E+5	4.5368	0.4078	-36.3
217.03	4.5701E+5	4.5326	0.4145	-34.6
217.23	4.5751E+5	4.5354	0.3958	-34.6
217.43	4.5801E+5	4.5382	0.4008	-35.9
217.63	4.5851E+5	4.5326	0.3911	-34.6
217.83	4.5901E+5	4.5396	0.3974	-34.2
218.03	4.5951E+5	4.5368	0.3868	-32.8
218.23	4.6001E+5	4.5340	0.3829	-33.5
218.43	4.6051E+5	4.5354	0.3670	-33.8
218.63	4.6101E+5	4.5368	0.3766	-32.2
218.83	4.6151E+5	4.5368	0.3498	-33.5
219.03	4.6201E+5	4.5368	0.3587	-31.3
219.23	4.6251E+5	4.5354	0.3643	-31.7
219.43	4.6301E+5	4.5425	0.3553	-31.3
219.66	4.6351E+5	4.5340	0.3515	-29.9
219.87	4.6401E+5	4.5340	0.3466	-29.4
220.07	4.6451E+5	4.5354	0.3441	-29.1
220.27	4.6501E+5	4.5410	0.3394	-28.5
220.49	4.6551E+5	4.5326	0.3372	-29.0
220.71	4.6601E+5	4.5297	0.3292	-26.4
220.91	4.6651E+5	4.5425	0.3271	-28.2
221.11	4.6701E+5	4.5382	0.3193	-27.5
221.34	4.6751E+5	4.5326	0.3240	-26.9
221.54	4.6801E+5	4.5354	0.3147	-31.2
221.74	4.6851E+5	4.5326	0.3126	-28.0
221.92	4.6901E+5	4.5354	0.3018	-27.2
222.12	4.6951E+5	4.5368	0.3082	-28.4
222.32	4.7001E+5	4.5354	0.3043	-28.3
222.52	4.7051E+5	4.5354	0.3039	-23.8
222.72	4.7101E+5	4.5410	0.3011	-27.9
222.93	4.7151E+5	4.5368	0.2982	-23.7
223.17	4.7201E+5	4.5410	0.2967	-22.8
223.37	4.7251E+5	4.5340	0.2939	-25.3
223.58	4.7301E+5	4.5311	0.2757	-23.7
223.78	4.7351E+5	4.5354	0.2857	-25.2
223.98	4.7401E+5	4.5382	0.2773	-21.2
224.18	4.7451E+5	4.5354	0.2832	-22.6
224.38	4.7501E+5	4.5368	0.2725	-23.4
224.58	4.7551E+5	4.5410	0.2710	-23.5
224.81	4.7601E+5	4.5340	0.2793	-25.6
225.03	4.7651E+5	4.5354	0.2648	-20.9
225.23	4.7701E+5	4.5382	0.2725	-23.7
225.43	4.7751E+5	4.5340	0.2624	-22.4
225.63	4.7801E+5	4.5368	0.2681	-21.9
225.83	4.7851E+5	4.5297	0.2640	-20.9
226.03	4.7901E+5	4.5410	0.2564	-23.2
226.24	4.7951E+5	4.5382	0.2541	-21.3
226.46	4.8001E+5	4.5368	0.2621	-20.9
226.66	4.8051E+5	4.5340	0.2546	-23.2
226.88	4.8101E+5	4.5368	0.2572	-25.6
227.08	4.8151E+5	4.5382	0.2437	-23.4
227.28	4.8201E+5	4.5439	0.2467	-18.3
227.49	4.8251E+5	4.5396	0.2441	-18.6
227.71	4.8301E+5	4.5396	0.2387	-20.2
227.91	4.8351E+5	4.5382	0.2377	-21.0
228.11	4.8401E+5	4.5425	0.2393	-18.5
228.32	4.8451E+5	4.5354	0.2327	-18.8
228.54	4.8501E+5	4.5382	0.2363	-18.7
228.74	4.8551E+5	4.5467	0.2258	-18.1
228.96	4.8601E+5	4.5382	0.2395	-21.6
229.17	4.8651E+5	4.5425	0.2217	-20.2
229.39	4.8701E+5	4.5396	0.2246	-22.1
229.60	4.8751E+5	4.5382	0.2291	-19.8
229.82	4.8801E+5	4.5368	0.2243	-19.8
230.02	4.8851E+5	4.5410	0.2198	-21.7
230.24	4.8901E+5	4.5396	0.2229	-17.6
230.45	4.8951E+5	4.5340	0.2271	-16.6
230.65	4.9001E+5	4.5354	0.2141	-18.6
230.85	4.9051E+5	4.5382	0.2188	-20.9
231.05	4.9101E+5	4.5382	0.2166	-20.8
231.25	4.9151E+5	4.5439	0.2120	-18.6
231.48	4.9201E+5	4.5396	0.2214	-16.1
231.70	4.9251E+5	4.5354	0.2143	-19.5
231.90	4.9301E+5	4.5396	0.2091	-19.4
232.10	4.9351E+5	4.5425	0.2129	-14.9
232.31	4.9401E+5	4.5410	0.2100	-18.7
232.51	4.9451E+5	4.5340	0.2061	-19.0
232.73	4.9501E+5	4.5410	0.2154	-17.1
232.95	4.9551E+5	4.5410	0.2089	-17.6
233.15	4.9601E+5	4.5396	0.2055	-19.6
233.38	4.9651E+5	4.5396	0.2056	-17.6
233.56	4.9701E+5	4.5368	0.2028	-18.0
233.76	4.9751E+5	4.5439	0.1957	-18.9
233.98	4.9801E+5	4.5354	0.1989	-14.8
234.21	4.9851E+5	4.5425	0.1997	-18.5
234.41	4.9901E+5	4.5382	0.1979	-16.6
234.63	4.9951E+5	4.5410	0.2013	-17.6
234.86	5.0001E+5	4.5396	0.1940	-17.7
235.08	5.0051E+5	4.5396	0.1927	-15.0
235.28	5.0101E+5	4.5453	0.2002	-14.2
235.49	5.0151E+5	4.5382	0.1904	-16.3
235.71	5.0201E+5	4.5340	0.1910	-16.0
235.89	5.0251E+5	4.5368	0.1863	-13.3
236.09	5.0301E+5	4.5340	0.1888	-19.0
236.29	5.0351E+5	4.5396	0.1870	-16.5
236.49	5.0401E+5	4.5368	0.1870	-18.2
236.67	5.0451E+5	4.5453	0.1876	-14.0
236.89	5.0501E+5	4.5396	0.1822	-16.9
237.12	5.0551E+5	4.5410	0.1869	-15.5
237.34	5.0601E+5	4.5396	0.1861	-13.9
237.54	5.0651E+5	4.5439	0.1750	-14.2
237.75	5.0701E+5	4.5368	0.1767	-17.2
237.97	5.0751E+5	4.5368	0.1837	-15.5
238.17	5.0801E+5	4.5368	0.1857	-14.6
238.37	5.0851E+5	4.5382	0.1828	-18.7
238.57	5.0901E+5	4.5453	0.1761	-14.5
238.78	5.0951E+5	4.5453	0.1712	-16.2
238.98	5.1001E+5	4.5396	0.1743	-18.4
239.20	5.1051E+5	4.5453	0.1678	-14.8
239.42	5.1101E+5	4.5382	0.1743	-13.7
239.63	5.1151E+5	4.5425	0.1714	-12.5
239.85	5.1201E+5	4.5382	0.1703	-13.6
240.08	5.1251E+5	4.5354	0.1659	-16.8
240.28	5.1301E+5	4.5396	0.1791	-17.6
240.48	5.1351E+5	4.5354	0.1648	-12.2
240.68	5.1401E+5	4.5453	0.1667	-10.7
240.90	5.1451E+5	4.5354	0.1674	-12.9
241.10	5.1501E+5	4.5439	0.1658	-12.1
241.31	5.1551E+5	4.5396	0.1539	-15.2
241.53	5.1601E+5	4.5382	0.1612	-13.5
241.73	5.1651E+5	4.5368	0.1693	-8.4
241.93	5.1701E+5	4.5396	0.1506	-13.1
242.13	5.1751E+5	4.5425	0.1561	-16.3
242.34	5.1801E+5	4.5410	0.1652	-13.4
242.54	5.1851E+5	4.5382	0.1573	-9.8
242.76	5.1901E+5	4.5439	0.1569	-16.4
242.96	5.1951E+5	4.5368	0.1559	-12.3
243.18	5.2001E+5	4.5368	0.1589	-15.3
243.37	5.2051E+5	4.5410	0.1478	-12.2
243.59	5.2101E+5	4.5340	0.1525	-11.4
243.81	5.2151E+5	4.5396	0.1514	-15.5
244.01	5.2201E+5	4.5354	0.1532	-11.8
244.21	5.2251E+5	4.5425	0.1539	-8.9
244.44	5.2301E+5	4.5439	0.1451	-13.6
244.64	5.2351E+5	4.5495	0.1521	-16.0
244.84	5.2401E+5	4.5481	0.1591	-11.2
245.04	5.2451E+5	4.5453	0.1478	-14.1
245.24	5.2501E+5	4.5410	0.1513	-15.5
245.44	5.2551E+5	4.5410	0.1483	-12.9
245.64	5.2601E+5	4.5382	0.1484	-14.9
245.84	5.2651E+5	4.5425	0.1496	-9.1
246.05	5.2701E+5	4.5326	0.1442	-12.0
246.27	5.2751E+5	4.5368	0.1449	-12.5
246.45	5.2801E+5	4.5425	0.1479	-14.5
246.67	5.2851E+5	4.5382	0.1488	-14.5
246.87	5.2901E+5	4.5410	0.1494	-12.6
247.10	5.2951E+5	4.5354	0.1404	-14.2
247.32	5.3001E+5	4.5410	0.1435	-14.1
247.53	5.3051E+5	4.5467	0.1421	-9.8
247.73	5.3101E+5	4.5410	0.1436	-5.5
247.93	5.3151E+5	4.5354	0.1379	-16.1
248.15	5.3201E+5	4.5382	0.1496	-11.5
248.35	5.3251E+5	4.5453	0.1395	-14.5
248.56	5.3301E+5	4.5368	0.1384	-13.1
248.78	5.3351E+5	4.5425	0.1384	-11.3
248.98	5.3401E+5	4.5439	0.1418	-11.9
249.18	5.3451E+5	4.5382	0.1396	-12.9
249.40	5.3501E+5	4.5326	0.1453	-13.8
249.59	5.3551E+5	4.5382	0.1408	-11.8
249.79	5.3601E+5	4.5410	0.1390	-11.8
250.01	5.3651E+5	4.5368	Inf	+339.7
250.21	5.3701E+5	4.5340	0.1386	-11.8
250.39	5.3751E+5	4.5382	0.1357	-13.3
250.59	5.3801E+5	4.5340	0.1239	-10.7
250.79	5.3851E+5	4.5396	0.1277	-9.4
250.99	5.3901E+5	4.5354	0.1331	-10.5
251.19	5.3951E+5	4.5340	0.1330	-13.5
251.37	5.4001E+5	4.5396	0.1394	-8.3
251.57	5.4051E+5	4.5439	0.1349	-6.2
251.79	5.4101E+5	4.5453	0.1409	-7.0
251.99	5.4151E+5	4.5382	0.1287	-12.2
252.21	5.4201E+5	4.5368	0.1236	-10.9
252.41	5.4251E+5	4.5439	0.1279	-13.5
252.62	5.4301E+5	4.5425	0.1397	-11.0
252.82	5.4351E+5	4.5382	0.1342	-11.1
253.05	5.4401E+5	4.5410	0.1287	-9.8
253.27	5.4451E+5	4.5382	0.1314	-13.9
253.49	5.4501E+5	4.5368	0.1317	-15.2
253.67	5.4551E+5	4.5297	0.1320	-12.9
253.85	5.4601E+5	4.5439	0.1322	-5.3
254.05	5.4651E+5	4.5396	0.1326	-10.1
254.27	5.4701E+5	4.5396	0.1196	-8.0
254.47	5.4751E+5	4.5382	0.1207	-11.4
254.65	5.4801E+5	4.5382	0.1227	-11.4
254.85	5.4851E+5	4.5396	0.1272	-14.4
255.05	5.4901E+5	4.5382	0.1261	-14.5
255.25	5.4951E+5	4.5382	0.1236	-11.8
255.45	5.5001E+5	4.5396	0.1290	-12.5
255.65	5.5051E+5	4.5425	0.1271	-11.7
255.87	5.5101E+5	4.5396	0.1193	-14.5
256.08	5.5151E+5	4.5340	0.1384	-12.0
256.28	5.5201E+5	4.5368	0.1223	-10.0
256.48	5.5251E+5	4.5354	0.1249	-11.1
256.68	5.5301E+5	4.5410	0.1117	-12.8
256.90	5.5351E+5	4.5340	0.1192	-12.9
257.11	5.5401E+5	4.5368	0.1236	-16.5
257.31	5.5451E+5	4.5439	0.1150	-10.4
257.53	5.5501E+5	4.5311	0.1238	-17.6
257.75	5.5551E+5	4.5410	0.1267	-11.4
257.98	5.5601E+5	4.5396	0.1191	-10.7
258.19	5.5651E+5	4.5326	0.1258	-10.9
258.39	5.5701E+5	4.5382	0.1219	-19.1
258.59	5.5751E+5	4.5311	0.1095	-10.0
258.79	5.5801E+5	4.5410	0.1195	-8.5
259.01	5.5851E+5	4.5382	0.1248	-10.1
259.23	5.5901E+5	4.5382	0.1108	-8.6
259.42	5.5951E+5	4.5368	0.1187	-9.7
259.62	5.6001E+5	4.5410	0.1175	-11.4
259.84	5.6051E+5	4.5382	0.1133	-6.6
260.06	5.6101E+5	4.5410	0.1157	-11.1
260.25	5.6151E+5	4.5354	0.1165	-8.4
260.45	5.6201E+5	4.5354	0.1116	-13.2
260.66	5.6251E+5	4.5410	0.1104	-12.1
260.87	5.6301E+5	4.5410	0.1123	-12.5
261.07	5.6351E+5	4.5382	0.1165	-9.1
261.29	5.6401E+5	4.5368	0.1146	-10.7
261.49	5.6451E+5	4.5382	0.1153	-7.3
261.69	5.6501E+5	4.5354	0.1122	-6.2
261.88	5.6551E+5	4.5340	0.1124	-10.5
262.07	5.6601E+5	4.5354	0.1145	-4.1
262.27	5.6651E+5	4.5382	0.1162	-4.4
262.47	5.6701E+5	4.5326	0.1057	-11.1
262.67	5.6751E+5	4.5382	0.1145	-14.2
262.87	5.6801E+5	4.5410	0.1182	-4.9
263.08	5.6851E+5	4.5340	0.1105	-8.4
263.30	5.6901E+5	4.5340	0.1106	-14.1
263.46	5.6951E+5	4.5368	0.1114	-9.0
263.67	5.7001E+5	4.5368	0.1071	-10.0
263.87	5.7051E+5	4.5340	0.1059	-11.0
264.06	5.7101E+5	4.5368	0.1207	-15.7
264.26	5.7151E+5	4.5382	0.1042	-8.4
264.46	5.7201E+5	4.5326	0.1155	-7.9
264.66	5.7251E+5	4.5425	0.1059	-12.2
264.88	5.7301E+5	4.5368	0.1066	-11.6
265.08	5.7351E+5	4.5382	0.1083	-14.5
265.28	5.7401E+5	4.5382	0.1088	-8.4
265.46	5.7451E+5	4.5368	0.1104	-3.4
265.66	5.7501E+5	4.5439	0.1101	-6.9
265.84	5.7551E+5	4.5311	0.1073	-12.1
266.06	5.7601E+5	4.5354	0.1055	-7.2
266.26	5.7651E+5	4.5368	0.1129	-9.0
266.46	5.7701E+5	4.5340	0.1021	-6.3
266.66	5.7751E+5	4.5382	0.1072	-8.7
266.86	5.7801E+5	4.5354	0.1065	-12.1
267.06	5.7851E+5	4.5326	0.1032	-9.0
267.26	5.7901E+5	4.5340	0.1020	-10.6
267.46	5.7951E+5	4.5297	0.1065	-6.3
267.66	5.8001E+5	4.5439	0.1057	-9.3
267.84	5.8051E+5	4.5396	0.1082	-8.0
268.06	5.8101E+5	4.5410	0.1041	-6.5
268.27	5.8151E+5	4.5382	0.1037	-10.8
268.49	5.8201E+5	4.5354	0.0976	-10.7
268.69	5.8251E+5	4.5382	0.1015	-4.1
268.89	5.8301E+5	4.5410	0.1021	-5.2
269.09	5.8351E+5	4.5354	0.0967	-9.7
269.30	5.8401E+5	4.5368	0.1062	-9.0
269.49	5.8451E+5	4.5368	0.1037	-4.4
269.69	5.8501E+5	4.5410	0.0962	-9.4
269.90	5.8551E+5	4.5396	0.1004	-11.2
270.12	5.8601E+5	4.5425	0.0987	-7.3
270.33	5.8651E+5	4.5410	0.1026	-13.8
270.53	5.8701E+5	4.5425	0.1059	-13.9
270.73	5.8751E+5	4.5396	0.0978	-7.6
270.95	5.8801E+5	4.5425	0.0988	-4.9
271.15	5.8851E+5	4.5368	0.1072	-1.1
271.36	5.8901E+5	4.5425	0.1012	-10.8
271.58	5.8951E+5	4.5382	0.1014	-5.2
271.78	5.9001E+5	4.5368	0.0990	-6.0
271.98	5.9051E+5	4.5368	0.0975	-9.9
272.18	5.9101E+5	4.5425	0.0946	-7.4
272.39	5.9151E+5	4.5382	0.0976	-4.2
272.59	5.9201E+5	4.5382	0.0979	-10.1
272.74	5.9251E+5	4.5354	0.0953	-7.2
272.93	5.9301E+5	4.5297	0.0964	-11.8
273.11	5.9351E+5	4.5326	0.0959	-11.3
273.28	5.9401E+5	4.5354	0.0980	-3.4
273.46	5.9451E+5	4.5311	0.0961	-11.6
273.64	5.9501E+5	4.5396	0.0954	-10.2
273.81	5.9551E+5	4.5439	0.0959	-10.5
274.02	5.9601E+5	4.5354	0.0987	-3.7
274.24	5.9651E+5	4.5354	0.1071	-9.0
274.42	5.9701E+5	4.5410	0.0934	-5.6
274.64	5.9751E+5	4.5326	0.0977	-10.7
274.86	5.9801E+5	4.5354	0.0978	-9.7
275.02	5.9851E+5	4.5297	0.0915	-12.5
275.19	5.9901E+5	4.5340	0.0952	-9.3
275.39	5.9951E+5	4.5354	0.1042	-9.1
275.59	6.0001E+5	4.5326	0.1006	-7.6
275.79	6.0051E+5	4.5368	0.0950	-4.6
275.99	6.0101E+5	4.5326	0.1066	+1.8
276.19	6.0151E+5	4.5354	0.0914	-4.9
276.37	6.0201E+5	4.5382	0.1007	-6.2
276.57	6.0251E+5	4.5368	0.0924	-11.6
276.77	6.0301E+5	4.5368	0.1018	-5.9
276.97	6.0351E+5	4.5368	0.0953	-9.4
277.17	6.0401E+5	4.5311	0.0953	+0.7
277.33	6.0451E+5	4.5340	0.1122	-10.7
277.54	6.0501E+5	4.5311	0.0896	-9.7
277.73	6.0551E+5	4.5396	0.0890	+343.4
277.92	6.0601E+5	4.5382	0.0963	-5.5
278.12	6.0651E+5	4.5410	0.0974	-12.5
278.33	6.0701E+5	4.5368	0.0929	-9.7
278.53	6.0751E+5	4.5340	0.0939	-8.0
278.71	6.0801E+5	4.5368	0.0924	-5.3
278.92	6.0851E+5	4.5311	0.0897	-7.3
279.12	6.0901E+5	4.5340	0.0910	-0.4
279.31	6.0951E+5	4.5340	0.0887	-4.9
279.50	6.1001E+5	4.5340	0.0889	-8.9
279.68	6.1051E+5	4.5297	0.0909	-10.6
279.88	6.1101E+5	4.5354	0.0898	-4.1
280.08	6.1151E+5	4.5311	0.0906	-7.7
280.28	6.1201E+5	4.5382	0.0918	-11.2
280.46	6.1251E+5	4.5255	0.0933	-12.8
280.66	6.1301E+5	4.5311	0.0904	-6.3
280.86	6.1351E+5	4.5297	0.0880	-5.5
281.06	6.1401E+5	4.5340	0.0912	-11.4
281.26	6.1451E+5	4.5326	0.0918	-4.8
281.43	6.1501E+5	4.5382	0.0879	-9.7
281.63	6.1551E+5	4.5326	0.0860	-7.6
281.83	6.1601E+5	4.5311	0.0919	-7.9
282.03	6.1651E+5	4.5382	0.0931	-12.4
282.23	6.1701E+5	4.5297	0.0996	-18.3
282.41	6.1751E+5	4.5297	0.0848	-9.0
282.61	6.1801E+5	4.5396	0.0962	-12.0
282.81	6.1851E+5	4.5311	0.0897	-8.8
283.01	6.1901E+5	4.5311	0.0848	-9.4
283.19	6.1951E+5	4.5354	0.0864	-2.4
283.39	6.2001E+5	4.5340	0.0911	-2.5
283.59	6.2051E+5	4.5326	0.0881	-1.5
283.79	6.2101E+5	4.5283	0.0881	+1.3
283.97	6.2151E+5	4.5297	0.0823	-8.5
284.15	6.2201E+5	4.5269	0.0862	-3.5
284.36	6.2251E+5	4.5354	0.0829	-6.1
284.55	6.2301E+5	4.5354	0.0866	-11.4
284.76	6.2351E+5	4.5297	0.0881	-3.4
284.94	6.2401E+5	4.5311	0.0851	-3.7
285.14	6.2451E+5	4.5297	0.0894	-6.8
285.33	6.2501E+5	4.5311	0.0974	-7.3
285.53	6.2551E+5	4.5311	0.0832	-3.9
285.73	6.2601E+5	4.5340	0.0868	+2.0
285.92	6.2651E+5	4.5283	0.0869	-4.7
286.10	6.2701E+5	4.5283	0.0839	-13.0
286.30	6.2751E+5	4.5255	0.0855	-10.0
286.50	6.2801E+5	4.5297	0.0798	-7.0
286.68	6.2851E+5	4.5368	0.0905	-17.7
286.88	6.2901E+5	4.5326	0.0853	+0.6
287.08	6.2951E+5	4.5283	0.0922	-3.8
287.28	6.3001E+5	4.5283	0.0834	-3.5
287.46	6.3051E+5	4.5326	0.0819	-8.7
287.66	6.3101E+5	4.5283	0.0799	-3.8
287.86	6.3151E+5	4.5311	0.0810	-8.3
288.05	6.3201E+5	4.5311	0.0827	-3.9
288.23	6.3251E+5	4.5283	0.0791	+342.7
288.43	6.3301E+5	4.5283	0.0804	-6.9
288.63	6.3351E+5	4.5269	Inf	+354.8
288.81	6.3401E+5	4.5340	0.0816	-4.9
288.99	6.3451E+5	4.5269	0.0820	-13.1
289.18	6.3501E+5	4.5326	0.0822	-4.8
289.36	6.3551E+5	4.5311	0.0806	-11.7
289.56	6.3601E+5	4.5269	Inf	-372.3
289.73	6.3651E+5	4.5283	0.0809	-7.6
289.91	6.3701E+5	4.5354	0.0835	-10.4
290.11	6.3751E+5	4.5241	0.0766	-2.1
290.31	6.3801E+5	4.5227	0.0788	-4.1
290.49	6.3851E+5	4.5311	0.0928	-7.0
290.69	6.3901E+5	4.5269	0.0826	-8.0
290.89	6.3951E+5	4.5198	0.0832	-12.4
291.09	6.4001E+5	4.5340	0.0834	-4.5
291.26	6.4051E+5	4.5283	0.0823	-1.4
291.46	6.4101E+5	4.5283	0.0778	-7.0
291.66	6.4151E+5	4.5354	0.0821	-9.0
291.84	6.4201E+5	4.5311	0.0803	-3.5
292.04	6.4251E+5	4.5227	0.0788	-5.9
292.24	6.4301E+5	4.5255	0.0786	-5.8
292.42	6.4351E+5	4.5297	0.0798	-3.8
292.59	6.4401E+5	4.5354	0.0837	-17.2
292.79	6.4451E+5	4.5283	0.0776	-1.5
292.99	6.4501E+5	4.5241	0.0772	-9.1
293.17	6.4551E+5	4.5297	0.0820	-2.1
293.35	6.4601E+5	4.5326	0.0936	-2.0
293.55	6.4651E+5	4.5311	0.0918	-11.9
293.75	6.4701E+5	4.5227	0.0788	-6.6
293.93	6.4751E+5	4.5297	0.0778	-5.9
294.13	6.4801E+5	4.5241	0.0754	-5.3
294.33	6.4851E+5	4.5255	0.0852	-14.0
294.53	6.4901E+5	4.5212	0.0765	-12.1
294.72	6.4951E+5	4.5283	0.0767	-7.2
294.90	6.5001E+5	4.5269	0.0780	-4.8
295.10	6.5051E+5	4.5269	0.0797	-8.0
295.28	6.5101E+5	4.5198	0.0815	+1.1
295.48	6.5151E+5	4.5297	0.0783	-6.6
295.68	6.5201E+5	4.5297	0.0792	-6.8
295.86	6.5251E+5	4.5269	0.0786	-7.0
296.05	6.5301E+5	4.5212	0.0749	-8.2
296.25	6.5351E+5	4.5255	0.0792	-9.1
296.44	6.5401E+5	4.5297	0.0755	-7.0
296.63	6.5451E+5	4.5255	0.0787	-10.2
296.83	6.5501E+5	4.5255	0.0764	-6.5
297.03	6.5551E+5	4.5297	0.0766	+347.0
297.19	6.5601E+5	4.5269	0.0754	-6.5
297.39	6.5651E+5	4.5297	0.0832	-13.2
297.59	6.5701E+5	4.5269	0.0738	-7.2
297.77	6.5751E+5	4.5212	0.0759	-0.8
297.98	6.5801E+5	4.5297	0.0747	-9.2
298.17	6.5851E+5	4.5269	0.0751	-6.3
298.36	6.5901E+5	4.5382	0.0776	-4.9
298.54	6.5951E+5	4.5283	Inf	+357.1
298.72	6.6001E+5	4.5241	0.0742	-9.0
298.92	6.6051E+5	4.5212	0.0743	+345.5
299.11	6.6101E+5	4.5269	0.0769	-4.8
299.31	6.6151E+5	4.5255	0.0750	-2.8
299.51	6.6201E+5	4.5340	0.0787	-8.7
299.69	6.6251E+5	4.5283	0.0768	-1.7
299.89	6.6301E+5	4.5241	0.0743	-10.9
300.09	6.6351E+5	4.5269	0.0745	-6.5
300.25	6.6401E+5	4.5269	0.0840	-7.8
300.45	6.6451E+5	4.5269	0.0732	-6.3
300.65	6.6501E+5	4.5283	0.0748	-12.4
300.83	6.6551E+5	4.5241	0.0760	-6.6
301.04	6.6601E+5	4.5241	0.0723	-9.4
301.24	6.6651E+5	4.5311	0.0740	-5.5
301.42	6.6701E+5	4.5227	0.0730	-12.5
301.60	6.6751E+5	4.5241	0.0736	-10.0
301.78	6.6801E+5	4.5241	0.0733	-6.0
301.93	6.6851E+5	4.5269	0.0736	-14.6
302.12	6.6901E+5	4.5269	0.0768	-6.0
302.32	6.6951E+5	4.5297	0.0724	-8.6
302.50	6.7001E+5	4.5283	0.0862	-12.5
302.70	6.7051E+5	4.5255	0.0726	-6.3
302.90	6.7101E+5	4.5283	0.0734	-1.3
303.08	6.7151E+5	4.5227	0.0729	-3.1
303.26	6.7201E+5	4.5283	0.0724	-12.3
303.46	6.7251E+5	4.5212	0.0735	+4.2
303.65	6.7301E+5	4.5241	0.0725	-1.5
303.85	6.7351E+5	4.5311	0.0736	-4.4
304.05	6.7401E+5	4.5255	0.0739	-9.8
304.21	6.7451E+5	4.5227	0.0733	-7.1
304.39	6.7501E+5	4.5283	0.0685	+344.4
304.60	6.7551E+5	4.5326	0.0698	-5.2
304.78	6.7601E+5	4.5184	0.0722	+1.0
304.98	6.7651E+5	4.5212	0.0708	-3.5
305.18	6.7701E+5	4.5311	0.0737	-8.2
305.36	6.7751E+5	4.5297	0.0720	-6.7
305.56	6.7801E+5	4.5198	0.0716	-4.7
305.74	6.7851E+5	4.5227	0.0737	-6.5
305.93	6.7901E+5	4.5184	0.0693	-5.8
306.12	6.7951E+5	4.5212	0.0786	-8.6
306.32	6.8001E+5	4.5283	0.0703	-4.3
306.51	6.8051E+5	4.5297	0.0696	-3.9
306.71	6.8101E+5	4.5227	0.0723	-8.7
306.91	6.8151E+5	4.5269	0.0807	-13.7
307.09	6.8201E+5	4.5326	0.0733	-8.9
307.29	6.8251E+5	4.5255	0.0727	-7.6
307.49	6.8301E+5	4.5311	0.0706	-3.5
307.67	6.8351E+5	4.5283	0.0801	-6.5
307.87	6.8401E+5	4.5241	0.0808	-16.2
308.04	6.8451E+5	4.5297	0.0693	-4.5
308.24	6.8501E+5	4.5227	0.0737	-3.9
308.44	6.8551E+5	4.5255	0.0718	-9.4
308.62	6.8601E+5	4.5212	0.0686	-3.0
308.82	6.8651E+5	4.5227	Inf	-3.7
309.00	6.8701E+5	4.5297	0.0710	-9.3
309.18	6.8751E+5	4.5283	0.0701	-1.3
309.37	6.8801E+5	4.5241	0.0713	-7.3
309.55	6.8851E+5	4.5269	0.0733	-5.9
309.73	6.8901E+5	4.5198	0.0743	-3.8
309.93	6.8951E+5	4.5212	0.0672	-4.4
310.12	6.9001E+5	4.5241	0.0711	-5.3
310.31	6.9051E+5	4.5241	0.0695	-6.0
310.51	6.9101E+5	4.5297	0.0688	-10.0
310.68	6.9151E+5	4.5297	0.0773	-2.3
310.88	6.9201E+5	4.5283	0.0696	+1.7
311.08	6.9251E+5	4.5297	0.0687	-8.6
311.25	6.9301E+5	4.5326	0.0690	-8.5
311.43	6.9351E+5	4.5326	0.0720	-10.5
311.61	6.9401E+5	4.5227	0.0714	+0.1
311.80	6.9451E+5	4.5269	0.0696	-4.6
312.00	6.9501E+5	4.5269	0.0709	+348.5
312.18	6.9551E+5	4.5269	0.0704	-1.0
312.36	6.9601E+5	4.5326	Inf	+361.0
312.54	6.9651E+5	4.5340	0.0673	-8.0
312.73	6.9701E+5	4.5212	0.0703	-8.9
312.93	6.9751E+5	4.5241	0.0679	-12.9
313.11	6.9801E+5	4.5297	0.0780	+0.0
313.31	6.9851E+5	4.5227	0.0701	-4.5
313.51	6.9901E+5	4.5283	0.0693	-0.1
313.69	6.9951E+5	4.5297	0.0695	-4.4
313.87	7.0001E+5	4.5283	0.0693	-8.2
314.04	7.0051E+5	4.5255	0.0682	+1.3
314.24	7.0101E+5	4.5269	0.0666	-5.8
314.44	7.0151E+5	4.5283	0.0695	-8.0
314.62	7.0201E+5	4.5255	0.0786	-4.8
314.82	7.0251E+5	4.5198	0.0682	+2.5
315.02	7.0301E+5	4.5311	0.0668	-5.8
315.20	7.0351E+5	4.5283	0.0697	-6.6
315.40	7.0401E+5	4.5227	0.0676	-6.2
315.59	7.0451E+5	4.5269	0.0703	-5.1
315.79	7.0501E+5	4.5212	0.0674	-8.7
316.00	7.0551E+5	4.5283	0.0752	-7.2
316.19	7.0601E+5	4.5297	0.0687	-2.5
316.39	7.0651E+5	4.5227	0.0756	-7.1
316.57	7.0701E+5	4.5326	0.0699	-4.6
316.77	7.0751E+5	4.5269	0.0658	+346.9
316.97	7.0801E+5	4.5255	0.0675	-13.4
317.15	7.0851E+5	4.5354	0.0666	+354.2
317.35	7.0901E+5	4.5212	0.0792	-21.9
317.53	7.0951E+5	4.5269	0.0741	-13.1
317.73	7.1001E+5	4.5311	0.0691	-8.0
317.93	7.1051E+5	4.5311	0.0658	-13.1
318.12	7.1101E+5	4.5255	0.0671	-4.6
318.30	7.1151E+5	4.5241	0.0712	-4.8
318.48	7.1201E+5	4.5326	0.0651	+349.6
318.68	7.1251E+5	4.5227	0.0677	+356.8
318.86	7.1301E+5	4.5198	Inf	+362.7
319.05	7.1351E+5	4.5269	Inf	+363.1
319.23	7.1401E+5	4.5241	0.0668	+0.3
319.41	7.1451E+5	4.5283	Inf	+363.0
319.60	7.1501E+5	4.5241	0.0656	-6.8
319.78	7.1551E+5	4.5227	0.0666	+350.8
319.98	7.1601E+5	4.5297	0.0683	+2.7
320.18	7.1651E+5	4.5354	0.0664	-0.8
320.36	7.1701E+5	4.5354	0.0652	-5.8
320.56	7.1751E+5	4.5255	0.0639	+348.9
320.74	7.1801E+5	4.5311	0.0654	-3.4
320.94	7.1851E+5	4.5255	Inf	-5.5
321.13	7.1901E+5	4.5269	0.0681	-4.2
321.31	7.1951E+5	4.5269	Inf	-2.7
321.49	7.2001E+5	4.5227	0.0661	+2.0
321.68	7.2051E+5	4.5326	0.0663	-6.7
321.86	7.2101E+5	4.5269	0.0645	-12.1
322.04	7.2151E+5	4.5241	0.0665	-11.4
322.24	7.2201E+5	4.5241	0.0629	+348.5
322.44	7.2251E+5	4.5255	0.0675	+342.3
322.61	7.2301E+5	4.5269	0.0637	-5.9
322.81	7.2351E+5	4.5269	Inf	+354.3
322.97	7.2401E+5	4.5241	0.0667	-7.2
323.17	7.2451E+5	4.5255	Inf	-9.1
323.34	7.2501E+5	4.5297	0.0640	+349.7
323.54	7.2551E+5	4.5212	0.0638	+352.6
323.72	7.2601E+5	4.5198	Inf	-8.1
323.89	7.2651E+5	4.5255	0.0678	-14.8
324.09	7.2701E+5	4.5241	0.0646	+3.0
324.27	7.2751E+5	4.5241	0.0659	-6.8
324.47	7.2801E+5	4.5227	0.0639	+347.2
324.65	7.2851E+5	4.5283	0.0638	-9.6
324.83	7.2901E+5	4.5198	0.0653	-4.4
325.03	7.2951E+5	4.5283	0.0641	-8.3
325.22	7.3001E+5	4.5227	0.0672	-4.9
325.42	7.3051E+5	4.5227	0.0634	-10.7
325.60	7.3101E+5	4.5212	0.0610	-8.7
325.80	7.3151E+5	4.5255	0.0633	-9.1
325.98	7.3201E+5	4.5311	0.0657	-5.9
326.18	7.3251E+5	4.5227	0.0659	-5.0
326.37	7.3301E+5	4.5297	0.0663	-8.7
326.55	7.3351E+5	4.5311	0.0648	+348.0
326.75	7.3401E+5	4.5184	0.0639	-1.5
326.93	7.3451E+5	4.5227	0.0697	-4.9
327.13	7.3501E+5	4.5255	0.0642	-10.5
327.31	7.3551E+5	4.5241	0.0685	-8.1
327.51	7.3601E+5	4.5283	0.0640	+2.4
327.70	7.3651E+5	4.5212	0.0625	+349.8
327.89	7.3701E+5	4.5297	0.0630	-2.7
328.08	7.3751E+5	4.5297	0.0644	-7.3
328.28	7.3801E+5	4.5184	0.0628	-5.4
328.48	7.3851E+5	4.5212	0.0619	+346.6
328.64	7.3901E+5	4.5283	0.0625	-0.3
328.83	7.3951E+5	4.5269	0.0624	+347.4
328.99	7.4001E+5	4.5255	0.0622	+352.5
329.17	7.4051E+5	4.5255	Inf	-1.3
329.34	7.4101E+5	4.5212	0.0621	-12.5
329.53	7.4151E+5	4.5184	0.0620	-8.0
329.69	7.4201E+5	4.5184	0.0618	-8.0
329.87	7.4251E+5	4.5212	0.0621	-6.4
330.04	7.4301E+5	4.5241	0.0625	-5.6
330.22	7.4351E+5	4.5227	0.0643	-6.3
330.42	7.4401E+5	4.5212	0.0636	-0.4
330.59	7.4451E+5	4.5212	0.0632	-2.3
330.77	7.4501E+5	4.5227	Inf	-2.5
330.94	7.4551E+5	4.5184	0.0654	-6.4
331.14	7.4601E+5	4.5269	0.0658	-4.0
331.32	7.4651E+5	4.5269	0.0667	-1.9
331.50	7.4701E+5	4.5340	0.0606	-5.4
331.67	7.4751E+5	4.5326	0.0687	-6.3
331.87	7.4801E+5	4.5326	0.0680	-4.4
332.05	7.4851E+5	4.5227	0.0615	+351.0
332.25	7.4901E+5	4.5241	0.0620	+347.3
332.44	7.4951E+5	4.5170	0.0599	-354.7
332.63	7.5001E+5	4.5241	0.0622	-5.8
332.83	7.5051E+5	4.5227	0.0614	-3.9
333.02	7.5101E+5	4.5212	0.0608	+346.1
333.20	7.5151E+5	4.5269	0.0598	+350.6
333.37	7.5201E+5	4.5269	Inf	-10.3
333.55	7.5251E+5	4.5184	0.0626	+341.7
333.73	7.5301E+5	4.5255	Inf	-8.5
333.92	7.5351E+5	4.5227	0.0602	+354.7
334.10	7.5401E+5	4.5255	Inf	-4.5
334.28	7.5451E+5	4.5156	0.0597	-4.9
334.46	7.5501E+5	4.5198	0.0619	-6.9
334.66	7.5551E+5	4.5227	0.0605	+355.5
334.85	7.5601E+5	4.5269	0.0609	-6.8
335.03	7.5651E+5	4.5212	0.0720	-28.3
335.20	7.5701E+5	4.5269	0.0673	-5.2
335.40	7.5751E+5	4.5255	0.0605	-11.7
335.58	7.5801E+5	4.5241	0.0615	-9.9
335.76	7.5851E+5	4.5269	0.0608	+354.5
335.93	7.5901E+5	4.5255	0.0681	-11.2
336.13	7.5951E+5	4.5198	Inf	-4.1
336.31	7.6001E+5	4.5255	0.0610	-10.3
336.49	7.6051E+5	4.5212	0.0603	-4.4
336.68	7.6101E+5	4.5297	0.0606	-10.8
336.84	7.6151E+5	4.5255	0.0595	-3.6
337.04	7.6201E+5	4.5170	0.0663	-5.6
337.23	7.6251E+5	4.5326	0.0602	-4.5
337.42	7.6301E+5	4.5198	Inf	+4.5
337.59	7.6351E+5	4.5184	Inf	-6.8
337.77	7.6401E+5	4.5326	0.0615	-7.2
337.94	7.6451E+5	4.5255	0.0596	-5.6
338.14	7.6501E+5	4.5227	0.0597	-1.7
338.31	7.6551E+5	4.5241	0.0591	-3.2
338.49	7.6601E+5	4.5212	0.0603	-3.2
338.67	7.6651E+5	4.5212	0.0597	-7.2
338.87	7.6701E+5	4.5255	0.0605	-3.7
339.05	7.6751E+5	4.5184	Inf	+1.4
339.24	7.6801E+5	4.5198	0.0586	+353.9
339.42	7.6851E+5	4.5227	0.0592	-5.4
339.62	7.6901E+5	4.5255	0.0585	+1.0
339.80	7.6951E+5	4.5156	0.0590	-8.9
340.00	7.7001E+5	4.5241	0.0660	+5.4
340.19	7.7051E+5	4.5283	0.0590	-4.2
340.38	7.7101E+5	4.5198	0.0581	-2.8
340.57	7.7151E+5	4.5255	0.0586	-354.0
340.75	7.7201E+5	4.5128	0.0600	-4.9
340.93	7.7251E+5	4.5198	0.0593	-5.0
341.12	7.7301E+5	4.5212	0.0586	+354.0
341.28	7.7351E+5	4.5212	0.0593	-3.1
341.48	7.7401E+5	4.5241	0.0595	-2.1
341.65	7.7451E+5	4.5184	0.0594	-0.6
341.83	7.7501E+5	4.5198	0.0587	-8.3
342.01	7.7551E+5	4.5255	Inf	-9.5
342.20	7.7601E+5	4.5184	Inf	-3.9
342.36	7.7651E+5	4.5184	0.0642	+2.4
342.56	7.7701E+5	4.5198	0.0594	-7.5
342.75	7.7751E+5	4.5212	0.0581	-7.4
342.95	7.7801E+5	4.5212	0.0649	-7.4
343.13	7.7851E+5	4.5227	Inf	-14.1
343.31	7.7901E+5	4.5156	0.0591	+1.3
343.50	7.7951E+5	4.5283	0.0640	-4.8
343.69	7.8001E+5	4.5269	0.0578	-1.5
343.88	7.8051E+5	4.5269	0.0585	-7.0
344.06	7.8101E+5	4.5184	0.0573	-4.1
344.23	7.8151E+5	4.5255	0.0580	-5.3
344.41	7.8201E+5	4.5227	Inf	-3.1
344.58	7.8251E+5	4.5255	Inf	-4.5
344.76	7.8301E+5	4.5227	0.0570	+345.7
344.94	7.8351E+5	4.5269	0.0576	-2.7
345.14	7.8401E+5	4.5283	0.0635	-8.4
345.32	7.8451E+5	4.5156	0.0577	-4.2
345.52	7.8501E+5	4.5198	0.0586	+347.4
345.69	7.8551E+5	4.5184	0.0561	-4.5
345.89	7.8601E+5	4.5241	0.0597	+362.3
346.07	7.8651E+5	4.5212	0.0575	+4.7
346.27	7.8701E+5	4.5170	Inf	-5.8
346.44	7.8751E+5	4.5241	0.0563	+354.9
346.64	7.8801E+5	4.5255	0.0565	+1.6
346.81	7.8851E+5	4.5113	0.0585	-14.1
347.04	7.8901E+5	4.5159	Inf	-16.7
347.22	7.8951E+5	4.5128	0.0574	+347.2
347.40	7.9001E+5	4.5170	0.0569	+353.5
347.59	7.9051E+5	4.5241	0.0565	-3.4
347.75	7.9101E+5	4.5170	0.0569	-6.8
347.94	7.9151E+5	4.5156	0.0572	-2.0
348.10	7.9201E+5	4.5212	0.0658	+11.5
348.30	7.9251E+5	4.5227	0.0587	-2.1
348.48	7.9301E+5	4.5198	0.0577	+1.9
348.68	7.9351E+5	4.5227	0.0560	+349.1
348.87	7.9401E+5	4.5156	0.0570	+348.1
349.05	7.9451E+5	4.5269	Inf	-7.3
349.21	7.9501E+5	4.5184	0.0570	-6.0
349.40	7.9551E+5	4.5297	Inf	-3.9
349.57	7.9601E+5	4.5227	0.0569	-3.6
349.75	7.9651E+5	4.5241	0.0578	+348.0
349.93	7.9701E+5	4.5170	0.0567	-2.9
350.13	7.9751E+5	4.5297	0.0572	-355.8
350.30	7.9801E+5	4.5212	Inf	+0.4
350.48	7.9851E+5	4.5156	0.0600	-0.6
350.66	7.9901E+5	4.5227	0.0566	-6.0
350.86	7.9951E+5	4.5227	0.0565	-0.1
351.03	8.0001E+5	4.5184	0.0566	-4.2
351.19	8.0051E+5	4.5128	0.0557	+354.1
351.39	8.0101E+5	4.5255	0.0561	-1.0
351.58	8.0151E+5	4.5184	0.0575	-6.1
351.78	8.0201E+5	4.5170	0.0559	-5.6
351.96	8.0251E+5	4.5241	0.0561	-2.5
352.13	8.0301E+5	4.5283	0.0562	+356.8
352.29	8.0351E+5	4.5170	0.0563	-5.5
352.48	8.0401E+5	4.5283	0.0569	+349.1
352.64	8.0451E+5	4.5184	0.0557	+4.9
352.84	8.0501E+5	4.5212	0.0563	-3.8
353.02	8.0551E+5	4.5269	0.0562	-6.2
353.21	8.0601E+5	4.5212	0.0566	+346.9
353.37	8.0651E+5	4.5227	0.0557	+355.4
353.57	8.0701E+5	4.5269	0.0564	-4.7
353.76	8.0751E+5	4.5128	0.0553	-3.5
353.94	8.0801E+5	4.5241	Inf	-10.9
354.12	8.0851E+5	4.5142	0.0552	-4.8
354.29	8.0901E+5	4.5227	0.0571	+350.2
354.49	8.0951E+5	4.5170	0.0555	+350.8
354.67	8.1001E+5	4.5269	Inf	-14.0
354.85	8.1051E+5	4.5241	Inf	-9.2
355.02	8.1101E+5	4.5198	0.0545	-11.1
355.20	8.1151E+5	4.5283	0.0605	+0.3
355.39	8.1201E+5	4.5142	0.0541	+348.3
355.58	8.1251E+5	4.5184	0.0553	-0.1
355.77	8.1301E+5	4.5184	0.0547	+347.0
355.93	8.1351E+5	4.5170	Inf	-5.1
356.12	8.1401E+5	4.5241	0.0554	-4.1
356.29	8.1451E+5	4.5198	0.0550	+3.8
356.47	8.1501E+5	4.5156	0.0616	+2.8
356.65	8.1551E+5	4.5184	0.0556	-6.9
356.85	8.1601E+5	4.5142	0.0551	+350.9
357.01	8.1651E+5	4.5184	Inf	-4.6
357.20	8.1701E+5	4.5198	0.0560	+345.9
357.38	8.1751E+5	4.5184	0.0551	+347.2
357.58	8.1801E+5	4.5128	0.0545	-2.7
357.75	8.1851E+5	4.5142	0.0549	+3.4
357.91	8.1901E+5	4.5170	0.0542	-9.0
358.11	8.1951E+5	4.5170	0.0546	-5.2
358.30	8.2001E+5	4.5156	0.0539	+348.0
358.50	8.2051E+5	4.5241	0.0547	+353.5
358.68	8.2101E+5	4.5184	0.0560	-358.4
358.88	8.2151E+5	4.5170	0.0548	+357.0
359.06	8.2201E+5	4.5184	0.0547	-2.4
359.25	8.2251E+5	4.5198	0.0554	+353.0
359.41	8.2301E+5	4.5227	0.0547	+353.2
359.58	8.2351E+5	4.5227	0.0561	+342.6
359.78	8.2401E+5	4.5212	0.0546	+353.2
359.94	8.2451E+5	4.5142	0.0539	+351.7
360.14	8.2501E+5	4.5156	0.0542	+1.6
360.31	8.2551E+5	4.5170	0.0540	-1.8
360.49	8.2601E+5	4.5198	Inf	-14.2
360.66	8.2651E+5	4.5241	0.0571	+0.1
360.84	8.2701E+5	4.5113	0.0544	+354.0
361.06	8.2751E+5	4.5088	0.0578	-4.5
361.24	8.2801E+5	4.5143	Inf	-4.3
361.44	8.2851E+5	4.5170	0.0544	-9.5
361.62	8.2901E+5	4.5198	Inf	-5.1
361.81	8.2951E+5	4.5156	0.0547	-7.3
361.99	8.3001E+5	4.5269	0.0540	+351.2
362.19	8.3051E+5	4.5212	0.0553	+359.1
362.37	8.3101E+5	4.5212	0.0538	+356.7
362.55	8.3151E+5	4.5128	0.0547	-9.1
362.75	8.3201E+5	4.5156	0.0539	-4.8
362.94	8.3251E+5	4.5085	0.0542	-2.8
363.14	8.3301E+5	4.5191	0.0539	-2.7
363.32	8.3351E+5	4.5198	0.0542	+0.0
363.50	8.3401E+5	4.5184	Inf	-6.0
363.67	8.3451E+5	4.5170	Inf	-4.5
363.84	8.3501E+5	4.5156	0.0538	+351.4
364.02	8.3551E+5	4.5128	Inf	+339.2
364.18	8.3601E+5	4.5184	0.0539	+351.4
364.37	8.3651E+5	4.5212	0.0541	+354.9
364.53	8.3701E+5	4.5156	0.0539	+3.3
364.70	8.3751E+5	4.5156	0.0533	+354.7
364.87	8.3801E+5	4.5212	Inf	+343.2
365.03	8.3851E+5	4.5170	0.0534	-5.6
365.20	8.3901E+5	4.5241	Inf	-9.2
365.37	8.3951E+5	4.5198	0.0550	+0.2
365.56	8.4001E+5	4.5227	0.0543	-6.2
365.75	8.4051E+5	4.5113	0.0614	-20.6
365.96	8.4101E+5	4.5249	0.0537	+0.2
366.16	8.4151E+5	4.5085	0.0535	-12.6
366.35	8.4201E+5	4.5203	Inf	-3.3
366.55	8.4251E+5	4.5142	Inf	-7.3
366.71	8.4301E+5	4.5113	0.0537	+1.1
366.91	8.4351E+5	4.5176	0.0532	-0.2
367.09	8.4401E+5	4.5156	0.0531	-1.2
367.28	8.4451E+5	4.5184	0.0528	-9.4
367.46	8.4501E+5	4.5283	0.0532	+2.4
367.64	8.4551E+5	4.5142	Inf	-11.6
367.82	8.4601E+5	4.5099	Inf	-0.5
368.01	8.4651E+5	4.5173	Inf	-4.3
368.21	8.4701E+5	4.5156	0.0531	-2.3
368.37	8.4751E+5	4.5128	0.0532	+3.5
368.52	8.4801E+5	4.5142	0.0530	-10.0
368.71	8.4851E+5	4.5071	0.0526	-2.9
368.91	8.4901E+5	4.5119	0.0523	-4.1
369.11	8.4951E+5	4.5170	Inf	+8.7
369.27	8.5001E+5	4.5170	Inf	-4.6
369.46	8.5051E+5	4.5198	0.0535	+2.0
369.64	8.5101E+5	4.5198	0.0536	-7.7
369.81	8.5151E+5	4.5184	0.0528	+343.3
370.00	8.5201E+5	4.5170	0.0535	-358.6
370.19	8.5251E+5	4.5113	0.0537	-3.1
370.39	8.5301E+5	4.5164	0.0520	-7.2
370.59	8.5351E+5	4.5156	0.0531	+358.3
370.77	8.5401E+5	4.5128	0.0532	-3.7
370.94	8.5451E+5	4.5156	0.0529	-0.5
371.12	8.5501E+5	4.5170	0.0488	-10.3
371.32	8.5551E+5	4.5071	0.0535	+355.8
371.52	8.5601E+5	4.5208	0.0557	-3.2
371.72	8.5651E+5	4.5212	0.0529	+356.3
371.92	8.5701E+5	4.5198	Inf	-7.8
372.08	8.5751E+5	4.5142	0.0530	-6.3
372.27	8.5801E+5	4.5212	0.0524	-7.9
372.43	8.5851E+5	4.5212	0.0530	+5.1
372.62	8.5901E+5	4.5128	Inf	-2.8
372.78	8.5951E+5	4.5113	0.0566	-5.1
372.98	8.6001E+5	4.5150	0.0525	+348.5
373.20	8.6051E+5	4.5198	0.0524	+351.2
373.36	8.6101E+5	4.5029	0.0531	-359.8
373.58	8.6151E+5	4.5111	0.0522	-359.8
373.76	8.6201E+5	4.5102	0.0527	+5.1
373.93	8.6251E+5	4.5129	0.0522	-4.1
374.13	8.6301E+5	4.5113	Inf	-9.3
374.31	8.6351E+5	4.5123	0.0524	+351.0
374.51	8.6401E+5	4.5128	0.0520	+355.5
374.68	8.6451E+5	4.5184	0.0534	+350.1
374.86	8.6501E+5	4.5156	0.0513	-4.5
375.06	8.6551E+5	4.5156	Inf	+2.2
375.23	8.6601E+5	4.5198	Inf	-1.9
375.41	8.6651E+5	4.5156	Inf	-4.8
375.58	8.6701E+5	4.5099	0.0522	-0.6
375.78	8.6751E+5	4.5186	0.0519	+353.6
375.98	8.6801E+5	4.5170	Inf	-4.7
376.14	8.6851E+5	4.5099	Inf	-1.9
376.34	8.6901E+5	4.5187	Inf	-2.8
376.52	8.6951E+5	4.5085	0.0526	+355.6
376.71	8.7001E+5	4.5142	0.0517	+1.4
376.91	8.7051E+5	4.5085	0.0525	-4.4
377.09	8.7101E+5	4.5132	0.0509	-9.1
377.31	8.7151E+5	4.5142	0.0549	+345.3
377.49	8.7201E+5	4.5156	0.0519	+352.2
377.67	8.7251E+5	4.5099	Inf	-15.9
377.87	8.7301E+5	4.5065	0.0516	+1.6
378.06	8.7351E+5	4.5169	0.0554	+345.4
378.27	8.7401E+5	4.5029	0.0508	-6.1
378.47	8.7451E+5	4.5123	0.0518	-5.8
378.67	8.7501E+5	4.5071	0.0514	-5.2
378.89	8.7551E+5	4.5123	0.0516	-9.0
379.07	8.7601E+5	4.5113	Inf	-27.9
379.25	8.7651E+5	4.5087	0.0517	+358.9
379.45	8.7701E+5	4.5074	0.0525	+353.8
379.62	8.7751E+5	4.5164	Inf	+345.8
379.82	8.7801E+5	4.5142	0.0519	+355.7
379.98	8.7851E+5	4.5156	0.0514	-4.4
380.17	8.7901E+5	4.5113	0.0512	-12.2
380.37	8.7951E+5	4.5071	0.0512	+359.2
380.53	8.8001E+5	4.5058	0.0513	+355.7
380.71	8.8051E+5	4.5098	0.0514	+354.6
380.88	8.8101E+5	4.5063	0.0509	-7.6
381.05	8.8151E+5	4.5128	0.0516	+355.7
381.25	8.8201E+5	4.5142	0.0506	-7.8
381.41	8.8251E+5	4.5085	0.0532	+357.5
381.63	8.8301E+5	4.5166	0.0503	-0.8
381.83	8.8351E+5	4.5057	0.0520	+355.9
382.03	8.8401E+5	4.5173	0.0511	-8.3
382.25	8.8451E+5	4.5071	0.0486	-7.1
382.44	8.8501E+5	4.5106	0.0507	-5.9
382.63	8.8551E+5	4.5119	0.0502	+2.7
382.83	8.8601E+5	4.5099	0.0542	-10.4
383.03	8.8651E+5	4.5207	0.0505	-12.8
383.24	8.8701E+5	4.5156	Inf	-2.5
383.41	8.8751E+5	4.5142	Inf	-2.4
383.57	8.8801E+5	4.5113	0.0511	-357.6
383.77	8.8851E+5	4.5147	0.0484	+0.8
383.98	8.8901E+5	4.5156	Inf	-0.5
384.14	8.8951E+5	4.5085	0.0512	-5.8
384.36	8.9001E+5	4.5126	0.0564	-17.9
384.56	8.9051E+5	4.5142	Inf	-7.7
384.74	8.9101E+5	4.5113	Inf	-9.7
384.91	8.9151E+5	4.5126	0.0510	+358.4
385.11	8.9201E+5	4.5085	0.0496	+0.2
385.32	8.9251E+5	4.5046	Inf	-2.7
385.49	8.9301E+5	4.5048	0.0524	+355.2
385.67	8.9351E+5	4.5106	Inf	+348.9
385.86	8.9401E+5	4.5088	0.0506	-4.2
386.04	8.9451E+5	4.5064	0.0508	-8.4
386.20	8.9501E+5	4.5120	0.0509	-7.6
386.39	8.9551E+5	4.5128	0.0518	+352.1
386.57	8.9601E+5	4.5142	Inf	+4.7
386.74	8.9651E+5	4.5057	0.0507	-13.5
386.94	8.9701E+5	4.5119	0.0505	-8.9
387.12	8.9751E+5	4.5085	0.0512	+357.1
387.32	8.9801E+5	4.5079	0.0517	+351.9
387.50	8.9851E+5	4.5176	Inf	-7.3
387.70	8.9901E+5	4.5057	0.0509	+352.6
387.90	8.9951E+5	4.5057	0.0506	-4.1
388.06	9.0001E+5	4.5149	Inf	-1.8
388.27	9.0051E+5	4.5142	0.0504	-1.6
388.43	9.0101E+5	4.5014	0.0502	+6.0
388.63	9.0151E+5	4.5180	Inf	-4.5
388.83	9.0201E+5	4.5128	0.0500	-2.8
389.00	9.0251E+5	4.5142	Inf	+345.3
389.16	9.0301E+5	4.5057	0.0501	-3.6
389.35	9.0351E+5	4.5108	0.0505	-13.0
389.53	9.0401E+5	4.5149	0.0503	-354.2
389.73	9.0451E+5	4.5085	0.0501	+352.2
389.93	9.0501E+5	4.5096	Inf	-3.6
390.10	9.0551E+5	4.5113	0.0516	+357.9
390.30	9.0601E+5	4.5048	0.0496	-0.8
390.48	9.0651E+5	4.5132	Inf	+347.0
390.66	9.0701E+5	4.5099	Inf	+343.0
390.86	9.0751E+5	4.5058	0.0498	-7.5
391.03	9.0801E+5	4.4988	Inf	-9.3
391.21	9.0851E+5	4.4975	0.0494	-3.8
391.38	9.0901E+5	4.5137	0.0507	+353.8
391.57	9.0951E+5	4.5014	Inf	-3.9
391.77	9.1001E+5	4.5089	0.0525	+358.0
391.96	9.1051E+5	4.5129	0.0506	+357.5
392.16	9.1101E+5	4.5128	0.0496	+357.4
392.34	9.1151E+5	4.4986	0.0500	+3.1
392.52	9.1201E+5	4.5014	0.0501	+349.6
392.69	9.1251E+5	4.5094	0.0493	-356.9
392.86	9.1301E+5	4.5072	Inf	-3.9
393.02	9.1351E+5	4.5057	0.0496	+4.6
393.20	9.1401E+5	4.5137	Inf	-355.7
393.37	9.1451E+5	4.5156	0.0503	-3.3
393.54	9.1501E+5	4.5113	0.0501	+356.2
393.75	9.1551E+5	4.5143	Inf	+344.9
393.94	9.1601E+5	4.5085	0.0502	+358.2
394.12	9.1651E+5	4.5075	0.0493	-1.3
394.30	9.1701E+5	4.5075	0.0464	-12.7
394.49	9.1751E+5	4.5085	0.0493	-7.1
394.67	9.1801E+5	4.5096	0.0507	-3.5
394.87	9.1851E+5	4.5081	0.0497	-359.5
395.05	9.1901E+5	4.5031	0.0509	+360.3
395.23	9.1951E+5	4.5091	0.0500	-357.2
395.43	9.2001E+5	4.5048	0.0498	-10.9
395.60	9.2051E+5	4.5043	Inf	-26.5
395.77	9.2101E+5	4.5038	0.0490	+1.2
395.93	9.2151E+5	4.5157	0.0492	-6.1
396.12	9.2201E+5	4.5085	0.0497	-3.2
396.31	9.2251E+5	4.5060	0.0488	-1.7
396.48	9.2301E+5	4.5085	Inf	+0.3
396.65	9.2351E+5	4.5146	Inf	-0.8
396.85	9.2401E+5	4.5113	0.0507	+355.3
397.05	9.2451E+5	4.5041	0.0487	-5.8
397.23	9.2501E+5	4.5077	0.0508	-362.7
397.43	9.2551E+5	4.5070	0.0536	-9.7
397.61	9.2601E+5	4.4978	0.0486	-2.5
397.80	9.2651E+5	4.5075	0.0495	-1.5
398.00	9.2701E+5	4.5050	0.0489	-353.5
398.16	9.2751E+5	4.5047	Inf	-7.8
398.33	9.2801E+5	4.5159	0.0479	-8.5
398.54	9.2851E+5	4.4972	Inf	+2.3
398.73	9.2901E+5	4.4968	0.0494	+351.6
398.91	9.2951E+5	4.5064	0.0497	-8.7
399.09	9.3001E+5	4.5017	0.0484	-9.2
399.27	9.3051E+5	4.5136	0.0491	-8.5
399.49	9.3101E+5	4.5043	0.0507	+359.0
399.69	9.3151E+5	4.4978	Inf	-5.7
399.86	9.3201E+5	4.5014	0.0496	+357.8
400.06	9.3251E+5	4.5006	Inf	-5.7
400.22	9.3301E+5	4.5146	Inf	-3.9
400.41	9.3351E+5	4.5099	0.0493	-11.1
400.61	9.3401E+5	4.5094	Inf	-2.2
400.77	9.3451E+5	4.5082	0.0488	+358.0
400.96	9.3501E+5	4.5120	Inf	-4.2
401.15	9.3551E+5	4.5014	0.0482	-2.9
401.34	9.3601E+5	4.5132	Inf	-10.5
401.52	9.3651E+5	4.5085	0.0488	-3.7
401.72	9.3701E+5	4.5058	0.0427	+14.5
401.90	9.3751E+5	4.5108	Inf	-7.4
402.07	9.3801E+5	4.5057	0.0475	-2.4
402.27	9.3851E+5	4.5054	0.0501	+361.2
402.45	9.3901E+5	4.5041	0.0505	+359.3
402.63	9.3951E+5	4.5075	0.0480	-6.6
402.83	9.4001E+5	4.5048	0.0493	+359.0
403.02	9.4051E+5	4.5009	0.0477	-5.6
403.20	9.4101E+5	4.4996	0.0485	-5.6
403.37	9.4151E+5	4.5016	0.0483	+2.2
403.53	9.4201E+5	4.5057	Inf	+4.4
403.70	9.4251E+5	4.5030	Inf	-5.7
403.86	9.4301E+5	4.5068	0.0492	+360.0
404.03	9.4351E+5	4.5017	Inf	-2.2
404.20	9.4401E+5	4.5071	0.0490	-9.3
404.36	9.4451E+5	4.5029	0.0501	+360.7
404.50	9.4501E+5	4.5050	Inf	-355.8
404.64	9.4551E+5	4.5137	Inf	-3.7
404.83	9.4601E+5	4.5000	0.0498	+355.4
404.99	9.4651E+5	4.5072	0.0483	+0.3
405.16	9.4701E+5	4.5058	Inf	-2.6
405.33	9.4751E+5	4.5082	Inf	-3.4
405.48	9.4801E+5	4.5040	0.0480	-5.8
405.63	9.4851E+5	4.5071	0.0485	+1.5
405.79	9.4901E+5	4.5021	0.0488	-0.2
405.94	9.4951E+5	4.4961	Inf	-2.7
406.09	9.5001E+5	4.5000	0.0478	+0.3
406.26	9.5051E+5	4.5048	0.0455	-10.6
406.43	9.5101E+5	4.5034	0.0498	+361.2
406.59	9.5151E+5	4.5078	0.0493	+1.2
406.76	9.5201E+5	4.4969	Inf	-1.9
406.91	9.5251E+5	4.5068	Inf	-17.6
407.06	9.5301E+5	4.5002	Inf	-17.2
407.23	9.5351E+5	4.5084	Inf	-12.9
407.39	9.5401E+5	4.4985	Inf	-0.9
407.56	9.5451E+5	4.5094	Inf	-354.3
407.74	9.5501E+5	4.4992	0.0479	-1.7
407.91	9.5551E+5	4.4990	0.0473	+3.6
408.09	9.5601E+5	4.5038	0.0471	-9.8
408.26	9.5651E+5	4.4965	0.0492	+358.4
408.44	9.5701E+5	4.5087	0.0491	-2.1
408.60	9.5751E+5	4.5041	0.0473	-7.1
408.79	9.5801E+5	4.5037	0.0474	+0.7
408.97	9.5851E+5	4.5058	0.0493	-360.7
409.15	9.5901E+5	4.5013	Inf	-19.4
409.34	9.5951E+5	4.5078	0.0486	+355.7
409.50	9.6001E+5	4.4985	0.0475	-0.2
409.67	9.6051E+5	4.4966	0.0478	-5.0
409.84	9.6101E+5	4.5065	0.0492	+357.8
410.02	9.6151E+5	4.4965	Inf	-16.6
410.17	9.6201E+5	4.4980	0.0474	-4.5
410.37	9.6251E+5	4.5067	0.0484	+352.9
410.55	9.6301E+5	4.5006	Inf	-2.9
410.72	9.6351E+5	4.4980	0.0487	+355.1
410.88	9.6401E+5	4.5053	0.0403	+18.4
411.07	9.6451E+5	4.5009	0.0471	-3.1
411.25	9.6501E+5	4.4968	0.0477	+358.1
411.45	9.6551E+5	4.5029	Inf	+345.1
411.62	9.6601E+5	4.5074	0.0482	-10.4
411.76	9.6651E+5	4.5038	Inf	-7.1
411.95	9.6701E+5	4.5000	Inf	-25.7
412.12	9.6751E+5	4.5053	0.0479	+355.1
412.28	9.6801E+5	4.5030	0.0471	-2.1
412.45	9.6851E+5	4.5007	0.0477	+347.6
412.65	9.6901E+5	4.4968	0.0465	-4.9
412.83	9.6951E+5	4.5142	0.0480	+4.7
413.03	9.7001E+5	4.4986	0.0483	+351.8
413.21	9.7051E+5	4.4934	Inf	-1.0
413.36	9.7101E+5	4.4961	0.0501	+360.0
413.55	9.7151E+5	4.5000	0.0469	-3.1
413.74	9.7201E+5	4.5063	0.0482	+352.5
413.93	9.7251E+5	4.4975	Inf	-7.7
414.09	9.7301E+5	4.4990	0.0472	-4.9
414.29	9.7351E+5	4.4891	0.0469	-5.4
414.46	9.7401E+5	4.4982	0.0462	-1.8
414.63	9.7451E+5	4.4985	0.0472	-10.2
414.79	9.7501E+5	4.4989	Inf	-1.2
414.96	9.7551E+5	4.5046	0.0470	+0.4
415.12	9.7601E+5	4.4988	0.0478	+355.6
415.32	9.7651E+5	4.4996	Inf	-4.8
415.49	9.7701E+5	4.5085	Inf	+350.5
415.66	9.7751E+5	4.4915	0.0486	+361.8
415.84	9.7801E+5	4.5014	Inf	+341.9
416.01	9.7851E+5	4.5000	Inf	-10.7
416.17	9.7901E+5	4.4915	Inf	-14.5
416.34	9.7951E+5	4.5000	0.0465	-11.3
416.54	9.8001E+5	4.5071	Inf	-1.8
416.70	9.8051E+5	4.5000	Inf	+2.5
416.87	9.8101E+5	4.4915	Inf	-355.4
417.05	9.8151E+5	4.5029	Inf	-355.2
417.22	9.8201E+5	4.5014	Inf	-5.3
417.39	9.8251E+5	4.4972	Inf	-6.0
417.57	9.8301E+5	4.4972	0.0464	-0.7
417.74	9.8351E+5	4.4972	0.0493	+360.2
417.90	9.8401E+5	4.5000	0.0490	+363.2
418.07	9.8451E+5	4.5043	0.0474	-6.2
418.25	9.8501E+5	4.4972	Inf	+332.3
418.42	9.8551E+5	4.5029	0.0471	+358.9
418.60	9.8601E+5	4.4958	Inf	+347.6
418.78	9.8651E+5	4.4958	Inf	-15.8
418.93	9.8701E+5	4.5000	0.0468	-12.8
419.10	9.8751E+5	4.4958	Inf	-20.8
419.28	9.8801E+5	4.4944	0.0474	+361.4
419.46	9.8851E+5	4.5000	0.0476	+358.6
419.63	9.8901E+5	4.4944	0.0461	-2.9
419.83	9.8951E+5	4.4915	Inf	-3.7
420.00	9.9001E+5	4.4958	0.0474	+360.2
420.18	9.9051E+5	4.5000	0.0466	-1.4
420.36	9.9101E+5	4.4972	Inf	-1.2
420.53	9.9151E+5	4.4986	0.0489	+357.9
420.70	9.9201E+5	4.4972	0.0465	+1.2
420.88	9.9251E+5	4.5043	Inf	+3.4
421.06	9.9301E+5	4.4986	Inf	-4.8
421.21	9.9351E+5	4.5000	Inf	-3.6
421.38	9.9401E+5	4.4958	0.0469	-12.3
421.54	9.9451E+5	4.4944	0.0501	+360.5
421.71	9.9501E+5	4.4972	0.0473	+362.5
421.89	9.9551E+5	4.4972	0.0476	+357.1
422.09	9.9601E+5	4.5043	0.0473	+354.6
422.28	9.9651E+5	4.5029	0.0463	+2.3
422.44	9.9701E+5	4.4944	Inf	-363.6
422.62	9.9751E+5	4.4972	Inf	+336.8
422.79	9.9801E+5	4.5043	0.0425	-11.3
422.97	9.9851E+5	4.4915	0.0462	+353.2
423.16	9.9901E+5	4.4972	Inf	+346.2
423.34	9.9951E+5	4.4915	0.0455	-6.1
423.52	1.0000E+6	4.4901	0.0480	-362.0
423.69	1.0005E+6	4.5014	Inf	+344.9
423.86	1.0010E+6	4.4986	0.0468	+355.7
424.04	1.0015E+6	4.4958	0.0449	-8.0
424.22	1.0020E+6	4.5014	0.0470	+360.0
424.42	1.0025E+6	4.4901	0.0450	-10.1
424.60	1.0030E+6	4.5000	0.0461	+349.2
424.79	1.0035E+6	4.4972	Inf	-3.6
424.94	1.0040E+6	4.4972	0.0465	-5.1
425.12	1.0045E+6	4.4986	Inf	-12.5
425.29	1.0050E+6	4.4845	0.0466	+355.7
425.45	1.0055E+6	4.5099	Inf	-8.3
425.64	1.0060E+6	4.5113	Inf	-4.2
425.80	1.0065E+6	4.5156	0.0455	-3.3
425.99	1.0070E+6	4.5142	0.0494	+364.9
426.17	1.0075E+6	4.5227	Inf	+346.4
426.35	1.0080E+6	4.5099	0.0459	-358.0
426.55	1.0085E+6	4.5043	0.0480	+363.6
426.72	1.0090E+6	4.5113	0.0461	+359.8
426.92	1.0095E+6	4.5142	0.0457	-8.5
427.12	1.0100E+6	4.5099	0.0471	+356.4
427.31	1.0105E+6	4.5156	0.0480	+354.7
427.53	1.0110E+6	4.5156	Inf	-6.7
427.70	1.0115E+6	4.5043	0.0458	-9.4
427.90	1.0120E+6	4.5071	0.0465	+1.8
428.08	1.0125E+6	4.5113	Inf	-2.7
428.26	1.0130E+6	4.5128	Inf	+352.3
428.43	1.0135E+6	4.5071	0.0453	-5.3
428.63	1.0140E+6	4.5142	0.0449	-2.2
428.83	1.0145E+6	4.5113	0.0459	+352.9
429.01	1.0150E+6	4.5099	0.0465	+360.2
429.19	1.0155E+6	4.5128	0.0460	+345.2
429.38	1.0160E+6	4.5057	0.0455	+4.9
429.59	1.0165E+6	4.5142	0.0454	+1.5
429.78	1.0170E+6	4.5128	Inf	-366.8
429.94	1.0175E+6	4.5099	0.0417	-13.4
430.16	1.0180E+6	4.5170	Inf	-10.1
430.34	1.0185E+6	4.5156	0.0448	-1.3
430.52	1.0190E+6	4.5099	Inf	+1.5
430.71	1.0195E+6	4.5142	Inf	-7.0
430.91	1.0200E+6	4.5099	0.0456	-1.3
431.07	1.0205E+6	4.5156	0.0487	+356.7
431.27	1.0210E+6	4.5099	0.0464	+356.3
431.49	1.0215E+6	4.5085	0.0467	+356.9
431.65	1.0220E+6	4.5057	0.0464	+356.1
431.82	1.0225E+6	4.5071	0.0456	+354.1
432.00	1.0230E+6	4.5142	0.0450	-6.8
432.21	1.0235E+6	4.5085	0.0457	-6.4
432.39	1.0240E+6	4.5156	0.0451	-5.5
432.57	1.0245E+6	4.5099	0.0451	-8.9
432.77	1.0250E+6	4.5156	Inf	+2.8
432.95	1.0255E+6	4.5113	0.0464	-3.5
433.15	1.0260E+6	4.5113	0.0472	+354.8
433.32	1.0265E+6	4.5099	0.0482	+362.2
433.50	1.0270E+6	4.5071	0.0475	+354.6
433.67	1.0275E+6	4.5142	0.0471	+355.9
433.87	1.0280E+6	4.5128	0.0455	-11.8
434.07	1.0285E+6	4.5085	Inf	-354.5
434.25	1.0290E+6	4.5057	0.0455	-5.7
434.42	1.0295E+6	4.5043	0.0481	+361.9
434.58	1.0300E+6	4.5184	0.0451	-4.3
434.80	1.0305E+6	4.5014	0.0448	-4.1
434.98	1.0310E+6	4.5113	Inf	-6.1
435.15	1.0315E+6	4.5085	0.0451	+1.7
435.33	1.0320E+6	4.5057	0.0447	-1.3
435.50	1.0325E+6	4.5071	0.0444	-5.0
435.66	1.0330E+6	4.5085	0.0462	+357.8
435.85	1.0335E+6	4.5029	0.0457	-5.6
436.05	1.0340E+6	4.5113	0.0446	-2.0
436.21	1.0345E+6	4.5057	0.0473	-5.0
436.38	1.0350E+6	4.5071	Inf	-19.6
436.54	1.0355E+6	4.5057	Inf	+343.4
436.71	1.0360E+6	4.5057	Inf	-367.1
436.88	1.0365E+6	4.5128	0.0457	+358.1
437.08	1.0370E+6	4.5113	0.0460	-10.8
437.29	1.0375E+6	4.5071	0.0452	+2.2
437.48	1.0380E+6	4.5142	0.0440	-6.5
437.68	1.0385E+6	4.5099	Inf	-361.7
437.88	1.0390E+6	4.5014	0.0448	-3.9
438.06	1.0395E+6	4.5057	Inf	+4.7
438.23	1.0400E+6	4.5043	Inf	-361.1
438.39	1.0405E+6	4.5085	Inf	-6.4
438.57	1.0410E+6	4.5057	0.0449	-4.7
438.74	1.0415E+6	4.5057	Inf	-6.5
438.91	1.0420E+6	4.5113	Inf	-5.6
439.07	1.0425E+6	4.5128	0.0446	-10.3
439.27	1.0430E+6	4.5014	0.0453	-3.2
439.46	1.0435E+6	4.5099	Inf	+339.5
439.62	1.0440E+6	4.5029	0.0445	-0.6
439.82	1.0445E+6	4.5014	Inf	+0.2
439.99	1.0450E+6	4.5057	0.0442	-5.1
440.15	1.0455E+6	4.4986	Inf	+360.9
440.32	1.0460E+6	4.5085	0.0441	-5.3
440.50	1.0465E+6	4.5043	0.0448	+352.3
440.67	1.0470E+6	4.5043	Inf	-8.5
440.84	1.0475E+6	4.5099	0.0455	-2.8
441.00	1.0480E+6	4.5085	Inf	+352.4
441.17	1.0485E+6	4.5029	Inf	-4.3
441.33	1.0490E+6	4.5128	0.0449	+4.0
441.52	1.0495E+6	4.5128	0.0450	-4.5
441.70	1.0500E+6	4.5113	Inf	-366.2
441.88	1.0505E+6	4.5085	Inf	-17.8
442.05	1.0510E+6	4.5043	0.0444	-3.8
442.23	1.0515E+6	4.5071	0.0448	-6.8
442.43	1.0520E+6	4.5128	Inf	+350.9
442.60	1.0525E+6	4.5029	0.0441	-4.2
442.80	1.0530E+6	4.4986	0.0464	+359.1
442.98	1.0535E+6	4.5071	0.0437	-5.9
443.17	1.0540E+6	4.5071	0.0451	+361.9
443.35	1.0545E+6	4.5029	0.0437	-3.4
443.53	1.0550E+6	4.5029	0.0437	-6.9
443.71	1.0555E+6	4.5057	Inf	-15.3
443.88	1.0560E+6	4.5043	Inf	-8.0
444.05	1.0565E+6	4.5000	Inf	-358.1
444.19	1.0570E+6	4.4986	0.0453	-361.9
444.39	1.0575E+6	4.5000	Inf	-5.3
444.56	1.0580E+6	4.5057	Inf	+354.5
444.73	1.0585E+6	4.5071	Inf	-365.5
444.88	1.0590E+6	4.5142	Inf	-0.6
445.08	1.0595E+6	4.5043	Inf	-357.9
445.26	1.0600E+6	4.5085	0.0445	-8.9
445.44	1.0605E+6	4.5029	0.0449	-0.8
445.64	1.0610E+6	4.5043	Inf	+351.8
445.81	1.0615E+6	4.5085	0.0438	-10.0
445.99	1.0620E+6	4.5000	Inf	+355.4
446.16	1.0625E+6	4.5043	0.0467	+361.9
446.36	1.0630E+6	4.5000	0.0454	+355.4
446.54	1.0635E+6	4.5071	Inf	-17.0
446.71	1.0640E+6	4.4986	Inf	-7.1
446.87	1.0645E+6	4.5071	Inf	-363.3
447.06	1.0650E+6	4.5029	0.0443	-4.8
447.24	1.0655E+6	4.5057	Inf	+5.0
447.40	1.0660E+6	4.5043	0.0406	+2.7
447.57	1.0665E+6	4.5029	0.0429	-6.9
447.76	1.0670E+6	4.5057	0.0452	-4.6
447.94	1.0675E+6	4.5000	0.0458	+364.0
448.10	1.0680E+6	4.5071	Inf	-6.0
448.27	1.0685E+6	4.5029	0.0455	+362.5
448.45	1.0690E+6	4.5000	Inf	+356.3
448.62	1.0695E+6	4.5085	0.0386	+19.6
448.80	1.0700E+6	4.5043	Inf	-358.5
448.97	1.0705E+6	4.5029	0.0438	-6.4
449.13	1.0710E+6	4.5000	0.0433	-5.0
449.30	1.0715E+6	4.5057	0.0431	-2.9
449.49	1.0720E+6	4.5057	0.0450	+356.9
449.68	1.0725E+6	4.5085	0.0454	+356.7
449.85	1.0730E+6	4.5029	0.0445	-7.7
450.01	1.0735E+6	4.4986	Inf	-4.3
450.17	1.0740E+6	4.4930	Inf	-11.8
450.33	1.0745E+6	4.5000	0.0436	+0.2
450.50	1.0750E+6	4.4986	Inf	-370.4
450.67	1.0755E+6	4.5029	Inf	-357.1
450.83	1.0760E+6	4.5057	0.0433	-3.3
451.01	1.0765E+6	4.5029	0.0434	-11.0
451.18	1.0770E+6	4.5043	Inf	-3.3
451.35	1.0775E+6	4.5029	0.0434	-7.8
451.51	1.0780E+6	4.4958	Inf	+358.3
451.68	1.0785E+6	4.4930	Inf	-17.3
451.85	1.0790E+6	4.5014	0.0427	-2.9
452.01	1.0795E+6	4.5029	Inf	-3.3
452.18	1.0800E+6	4.4930	0.0431	-6.2
452.36	1.0805E+6	4.5014	Inf	+351.5
452.53	1.0810E+6	4.5029	Inf	-358.3
452.69	1.0815E+6	4.5029	Inf	+342.5
452.86	1.0820E+6	4.4972	Inf	-12.3
453.04	1.0825E+6	4.5029	0.0443	-1.8
453.23	1.0830E+6	4.4986	0.0432	-7.4
453.39	1.0835E+6	4.5057	Inf	-9.3
453.56	1.0840E+6	4.5029	Inf	+346.7
453.74	1.0845E+6	4.5000	Inf	-357.3
453.91	1.0850E+6	4.5000	0.0442	+356.1
454.07	1.0855E+6	4.5014	Inf	-14.1
454.26	1.0860E+6	4.5029	Inf	-4.7
454.42	1.0865E+6	4.5071	0.0444	+358.0
454.59	1.0870E+6	4.5014	Inf	-359.0
454.75	1.0875E+6	4.4972	0.0449	+363.5
454.95	1.0880E+6	4.4986	Inf	+Inf
455.12	1.0885E+6	4.5000	Inf	-357.6
455.29	1.0890E+6	4.4986	0.0441	+1.6
455.47	1.0895E+6	4.4986	0.0428	-4.3
455.67	1.0900E+6	4.5000	Inf	-358.8
455.84	1.0905E+6	4.4887	0.0428	-7.7
456.00	1.0910E+6	4.5043	0.0421	-5.7
456.17	1.0915E+6	4.5000	0.0436	+0.8
456.37	1.0920E+6	4.5000	0.0438	-7.1
456.54	1.0925E+6	4.5029	Inf	+361.8
456.70	1.0930E+6	4.4986	0.0441	+361.6
456.87	1.0935E+6	4.4986	Inf	+359.0
457.05	1.0940E+6	4.4944	0.0432	-2.6
457.20	1.0945E+6	4.4972	Inf	-5.1
457.37	1.0950E+6	4.5029	0.0434	-2.0
457.53	1.0955E+6	4.5014	0.0434	+0.8
457.72	1.0960E+6	4.4986	Inf	+3.8
457.88	1.0965E+6	4.5043	Inf	-359.8
458.05	1.0970E+6	4.4972	0.0428	-6.5
458.23	1.0975E+6	4.5014	Inf	+361.0
458.41	1.0980E+6	4.4930	Inf	-358.0
458.58	1.0985E+6	4.4944	Inf	+336.9
458.75	1.0990E+6	4.5029	Inf	+342.4
458.91	1.0995E+6	4.4972	Inf	+342.0
459.10	1.1000E+6	4.5000	Inf	+0.2
459.26	1.1005E+6	4.4901	0.0444	-2.8
459.43	1.1010E+6	4.4986	Inf	+Inf
459.58	1.1015E+6	4.4887	0.0427	-1.8
459.78	1.1020E+6	4.4958	0.0436	+0.6
459.96	1.1025E+6	4.5071	0.0429	+347.1
460.14	1.1030E+6	4.4930	0.0432	-7.0
460.33	1.1035E+6	4.4887	0.0440	+364.2
460.51	1.1040E+6	4.4901	Inf	-3.0
460.68	1.1045E+6	4.4958	0.0438	-0.4
460.84	1.1050E+6	4.4944	0.0434	-0.4
461.01	1.1055E+6	4.4972	0.0435	-3.6
461.18	1.1060E+6	4.4972	0.0425	-7.0
461.36	1.1065E+6	4.4972	Inf	-355.0
461.53	1.1070E+6	4.4972	0.0423	+354.0
461.69	1.1075E+6	4.4972	0.0428	+4.4
461.86	1.1080E+6	4.4944	0.0441	-9.0
462.06	1.1085E+6	4.4958	Inf	-14.6
462.22	1.1090E+6	4.4901	0.0433	-0.8
462.39	1.1095E+6	4.5014	0.0424	-357.2
462.57	1.1100E+6	4.4930	0.0433	-5.4
462.77	1.1105E+6	4.4930	Inf	+352.8
462.94	1.1110E+6	4.4972	Inf	-7.6
463.11	1.1115E+6	4.4986	0.0417	-5.4
463.29	1.1120E+6	4.4972	0.0422	-10.8
463.49	1.1125E+6	4.5014	Inf	+363.4
463.65	1.1130E+6	4.4958	Inf	-365.0
463.82	1.1135E+6	4.4930	0.0419	-10.8
463.99	1.1140E+6	4.4887	0.0441	+364.2
464.19	1.1145E+6	4.4887	Inf	+363.2
464.35	1.1150E+6	4.5029	0.0412	-1.4
464.52	1.1155E+6	4.4958	0.0421	-2.8
464.70	1.1160E+6	4.4944	0.0402	-10.9
464.88	1.1165E+6	4.5029	0.0422	-3.8
465.07	1.1170E+6	4.4958	Inf	-8.0
465.23	1.1175E+6	4.4958	0.0427	-0.4
465.40	1.1180E+6	4.4972	0.0435	-2.4
465.60	1.1185E+6	4.4915	0.0444	+362.8
465.76	1.1190E+6	4.4915	0.0437	-0.6
465.93	1.1195E+6	4.4958	Inf	+346.5
466.10	1.1200E+6	4.4972	Inf	+342.7
466.28	1.1205E+6	4.4915	Inf	-5.2
466.45	1.1210E+6	4.5014	Inf	+340.8
466.62	1.1215E+6	4.4930	0.0430	-4.6
466.80	1.1220E+6	4.4930	0.0425	-4.7
466.96	1.1225E+6	4.4944	0.0428	+360.4
467.15	1.1230E+6	4.4887	0.0442	+1.4
467.33	1.1235E+6	4.4944	0.0438	+356.4
467.50	1.1240E+6	4.4915	Inf	-0.2
467.66	1.1245E+6	4.4873	0.0441	+362.4
467.83	1.1250E+6	4.4986	0.0422	-5.3
468.01	1.1255E+6	4.4915	0.0441	+359.2
468.19	1.1260E+6	4.4972	0.0424	-4.6
468.38	1.1265E+6	4.4887	0.0427	-2.0
468.56	1.1270E+6	4.5000	0.0418	-4.3
468.73	1.1275E+6	4.4930	Inf	-364.7
468.89	1.1280E+6	4.4901	0.0415	-0.8
469.08	1.1285E+6	4.4859	Inf	-4.5
469.26	1.1290E+6	4.4901	Inf	+2.2
469.42	1.1295E+6	4.4972	Inf	+Inf
469.59	1.1300E+6	4.4944	Inf	+338.8
469.76	1.1305E+6	4.4901	0.0421	-2.4
469.96	1.1310E+6	4.4901	0.0420	-4.7
470.12	1.1315E+6	4.4958	Inf	+343.3
470.27	1.1320E+6	4.4958	0.0425	-8.4
470.44	1.1325E+6	4.5014	Inf	-11.4
470.61	1.1330E+6	4.4972	0.0415	-7.8
470.81	1.1335E+6	4.4873	0.0413	-3.1
470.97	1.1340E+6	4.4859	0.0418	-5.9
471.15	1.1345E+6	4.4930	Inf	+352.6
471.32	1.1350E+6	4.4930	0.0412	-4.1
471.52	1.1355E+6	4.4901	Inf	+354.5
471.69	1.1360E+6	4.4915	Inf	-18.2
471.85	1.1365E+6	4.4887	0.0426	+355.3
472.04	1.1370E+6	4.4915	Inf	+339.9
472.22	1.1375E+6	4.4944	Inf	-4.9
472.39	1.1380E+6	4.4887	0.0431	-6.8
472.55	1.1385E+6	4.4845	Inf	+359.6
472.72	1.1390E+6	4.4958	0.0414	-1.2
472.90	1.1395E+6	4.4915	Inf	+339.1
473.08	1.1400E+6	4.4873	0.0426	-0.8
473.27	1.1405E+6	4.4944	0.0431	+352.6
473.43	1.1410E+6	4.4915	Inf	+1.2
473.60	1.1415E+6	4.4958	Inf	-362.5
473.78	1.1420E+6	4.4958	Inf	-5.8
473.95	1.1425E+6	4.4887	Inf	+1.4
474.12	1.1430E+6	4.4958	Inf	-13.4
474.28	1.1435E+6	4.4887	0.0425	-7.4
474.46	1.1440E+6	4.4915	Inf	+2.5
474.63	1.1445E+6	4.4930	Inf	+4.7
474.80	1.1450E+6	4.4845	Inf	-4.3
474.96	1.1455E+6	4.4986	0.0435	+364.3
475.15	1.1460E+6	4.4887	0.0426	-362.9
475.35	1.1465E+6	4.4760	Inf	+4.3
475.53	1.1470E+6	4.4958	0.0418	+2.1
475.69	1.1475E+6	4.4915	0.0432	-363.7
475.86	1.1480E+6	4.4887	0.0428	-2.7
476.05	1.1485E+6	4.4859	Inf	-6.4
476.21	1.1490E+6	4.4887	Inf	-16.6
476.38	1.1495E+6	4.4845	0.0415	-7.9
476.56	1.1500E+6	4.4887	0.0429	+0.2
476.74	1.1505E+6	4.4901	0.0441	+362.9
476.94	1.1510E+6	4.4944	0.0427	-3.5
477.12	1.1515E+6	4.4944	0.0421	-0.4
477.29	1.1520E+6	4.4873	0.0438	+363.9
477.47	1.1525E+6	4.4859	Inf	+4.2
477.66	1.1530E+6	4.4802	Inf	-7.5
477.84	1.1535E+6	4.4901	Inf	+356.1
478.02	1.1540E+6	4.4901	Inf	-23.9
478.19	1.1545E+6	4.4859	0.0409	-5.6
478.39	1.1550E+6	4.4873	0.0422	+357.1
478.57	1.1555E+6	4.4986	0.0413	-4.2
478.75	1.1560E+6	4.4887	0.0415	-10.8
478.92	1.1565E+6	4.4887	0.0424	-2.9
479.11	1.1570E+6	4.4901	0.0426	-0.4
479.27	1.1575E+6	4.4859	0.0424	+2.1
479.44	1.1580E+6	4.4887	Inf	+338.7
479.60	1.1585E+6	4.4873	Inf	-364.4
479.77	1.1590E+6	4.4873	Inf	-5.6
479.95	1.1595E+6	4.4859	0.0386	-2.5
480.12	1.1600E+6	4.4915	Inf	-13.0
480.28	1.1605E+6	4.4901	0.0419	-8.4
480.45	1.1610E+6	4.4930	0.0412	-4.6
480.63	1.1615E+6	4.4887	0.0415	+1.3
480.82	1.1620E+6	4.4915	Inf	-368.8
480.98	1.1625E+6	4.4831	0.0423	+0.6
481.18	1.1630E+6	4.4972	Inf	-1.9
481.37	1.1635E+6	4.4845	Inf	+Inf
481.55	1.1640E+6	4.4859	Inf	+345.3
481.72	1.1645E+6	4.4802	Inf	-354.1
481.90	1.1650E+6	4.4972	Inf	-363.6
482.08	1.1655E+6	4.4816	Inf	-16.4
482.26	1.1660E+6	4.4859	Inf	-13.0
482.46	1.1665E+6	4.4831	0.0425	-9.5
482.65	1.1670E+6	4.4887	Inf	-365.9
482.83	1.1675E+6	4.4915	0.0408	-7.8
483.01	1.1680E+6	4.4859	Inf	-2.5
483.19	1.1685E+6	4.4887	Inf	+341.3
483.35	1.1690E+6	4.4859	Inf	-369.1
483.51	1.1695E+6	4.4788	Inf	+361.1
483.69	1.1700E+6	4.4859	0.0410	-4.4
483.88	1.1705E+6	4.4845	Inf	-356.6
484.06	1.1710E+6	4.4816	0.0407	-2.3
484.24	1.1715E+6	4.4845	0.0421	+356.6
484.44	1.1720E+6	4.4845	0.0425	+1.5
484.61	1.1725E+6	4.4887	Inf	-8.4
484.78	1.1730E+6	4.4887	0.0410	-9.3
484.98	1.1735E+6	4.4788	Inf	-367.6
485.16	1.1740E+6	4.4887	0.0410	-5.3
485.32	1.1745E+6	4.4930	Inf	+361.5
485.49	1.1750E+6	4.4831	0.0419	+4.7
485.71	1.1755E+6	4.4859	0.0415	-7.0
485.91	1.1760E+6	4.4802	0.0417	+0.0
486.07	1.1765E+6	4.4986	0.0424	+1.5
486.27	1.1770E+6	4.4845	0.0428	-362.8
486.44	1.1775E+6	4.4802	Inf	-372.1
486.64	1.1780E+6	4.4958	0.0432	+363.8
486.84	1.1785E+6	4.4859	Inf	-356.6
487.00	1.1790E+6	4.4845	Inf	-15.5
487.17	1.1795E+6	4.4859	0.0413	+356.0
487.37	1.1800E+6	4.4816	0.0419	-361.9
487.57	1.1805E+6	4.4859	0.0426	-4.5
487.75	1.1810E+6	4.4859	0.0404	-6.2
487.93	1.1815E+6	4.4915	0.0409	-6.8
488.10	1.1820E+6	4.4831	0.0421	-2.8
488.32	1.1825E+6	4.4944	0.0415	-3.0
488.52	1.1830E+6	4.4816	Inf	+347.2
488.70	1.1835E+6	4.4831	0.0409	+2.1
488.87	1.1840E+6	4.4831	Inf	+344.1
489.03	1.1845E+6	4.4930	0.0395	-12.4
489.25	1.1850E+6	4.4831	0.0409	-0.2
489.45	1.1855E+6	4.4859	Inf	-28.5
489.63	1.1860E+6	4.4788	Inf	-366.2
489.81	1.1865E+6	4.4845	Inf	+336.3
490.01	1.1870E+6	4.4887	Inf	-1.3
490.18	1.1875E+6	4.4732	Inf	+333.5
490.36	1.1880E+6	4.4816	0.0406	-4.3
490.53	1.1885E+6	4.4930	Inf	+357.9
490.71	1.1890E+6	4.4774	Inf	-371.3
490.91	1.1895E+6	4.4915	0.0414	+360.6
491.08	1.1900E+6	4.4845	Inf	+343.1
491.25	1.1905E+6	4.4859	0.0407	-6.2
491.41	1.1910E+6	4.4802	0.0413	-3.2
491.58	1.1915E+6	4.4816	Inf	-16.1
491.74	1.1920E+6	4.4915	0.0422	-2.8
491.94	1.1925E+6	4.4788	Inf	-361.3
492.13	1.1930E+6	4.4901	0.0423	+359.8
492.31	1.1935E+6	4.4859	Inf	+349.7
492.48	1.1940E+6	4.4802	0.0425	+359.8
492.68	1.1945E+6	4.4760	0.0401	-3.4
492.86	1.1950E+6	4.4873	0.0411	-3.0
493.06	1.1955E+6	4.4873	Inf	-9.5
493.22	1.1960E+6	4.4873	Inf	-5.2
493.39	1.1965E+6	4.4873	Inf	-15.5
493.54	1.1970E+6	4.4816	0.0415	+2.2
493.72	1.1975E+6	4.4845	0.0408	-11.4
493.91	1.1980E+6	4.4859	0.0407	-3.5
494.07	1.1985E+6	4.4859	Inf	+Inf
494.26	1.1990E+6	4.4901	0.0428	+364.7
494.44	1.1995E+6	4.4760	Inf	+346.8
494.62	1.2000E+6	4.4944	Inf	-5.2
494.80	1.2005E+6	4.4831	Inf	+350.5
494.97	1.2010E+6	4.4802	Inf	+352.0
495.14	1.2015E+6	4.4930	0.0418	-4.5
495.30	1.2020E+6	4.4831	0.0410	+2.4
495.50	1.2025E+6	4.4788	0.0404	+0.2
495.67	1.2030E+6	4.4845	0.0409	+4.5
495.83	1.2035E+6	4.4802	Inf	+0.0
496.04	1.2040E+6	4.4845	0.0416	-3.9
496.22	1.2045E+6	4.4717	Inf	+3.5
496.40	1.2050E+6	4.4746	Inf	-357.6
496.57	1.2055E+6	4.4831	Inf	+360.7
496.73	1.2060E+6	4.4859	Inf	-6.3
496.93	1.2065E+6	4.4831	0.0401	-10.2
497.13	1.2070E+6	4.4831	Inf	-13.7
497.30	1.2075E+6	4.4816	0.0409	+2.8
497.46	1.2080E+6	4.4873	0.0406	+1.7
497.67	1.2085E+6	4.4746	Inf	+1.1
497.83	1.2090E+6	4.4859	0.0402	-1.3
498.03	1.2095E+6	4.4816	Inf	-21.6
498.21	1.2100E+6	4.4845	Inf	-357.4
498.40	1.2105E+6	4.4816	Inf	-4.6
498.58	1.2110E+6	4.4859	0.0411	-5.7
498.78	1.2115E+6	4.4774	0.0411	-4.1
498.94	1.2120E+6	4.4845	Inf	-15.3
499.13	1.2125E+6	4.4859	Inf	-364.8
499.30	1.2130E+6	4.4760	0.0401	-8.7
499.51	1.2135E+6	4.4873	Inf	+347.4
499.69	1.2140E+6	4.4760	Inf	+357.6
499.88	1.2145E+6	4.4831	Inf	+362.0
500.04	1.2150E+6	4.4802	Inf	-365.3
500.21	1.2155E+6	4.4845	Inf	-363.1
500.41	1.2160E+6	4.4732	Inf	+361.1
500.59	1.2165E+6	4.4873	Inf	-10.5
500.77	1.2170E+6	4.4816	0.0403	-2.8
500.97	1.2175E+6	4.4930	Inf	-356.7
501.16	1.2180E+6	4.4746	Inf	+3.3
501.36	1.2185E+6	4.4760	0.0413	+4.6
501.52	1.2190E+6	4.4845	0.0400	+0.9
501.72	1.2195E+6	4.4802	Inf	-360.2
501.91	1.2200E+6	4.4816	Inf	-362.0
502.07	1.2205E+6	4.4760	Inf	+362.9
502.25	1.2210E+6	4.4802	0.0403	-2.6
502.42	1.2215E+6	4.4816	Inf	-14.7
502.59	1.2220E+6	4.4788	Inf	-22.9
502.75	1.2225E+6	4.4774	0.0399	-11.3
502.92	1.2230E+6	4.4802	Inf	-2.2
503.10	1.2235E+6	4.4816	0.0413	-7.5
503.29	1.2240E+6	4.4774	0.0411	+2.6
503.45	1.2245E+6	4.4831	0.0403	-6.2
503.62	1.2250E+6	4.4802	0.0409	+2.0
503.79	1.2255E+6	4.4859	Inf	+347.9
503.98	1.2260E+6	4.4816	Inf	+357.8
504.17	1.2265E+6	4.4802	Inf	+347.9
504.32	1.2270E+6	4.4788	Inf	+Inf
504.48	1.2275E+6	4.4802	Inf	+361.1
504.65	1.2280E+6	4.4760	Inf	-363.5
504.82	1.2285E+6	4.4887	0.0398	+348.1
505.02	1.2290E+6	4.4717	0.0406	-1.1
505.22	1.2295E+6	4.4774	0.0401	+0.7
505.40	1.2300E+6	4.4845	0.0401	-9.8
505.56	1.2305E+6	4.4859	0.0401	-5.3
505.75	1.2310E+6	4.4732	0.0405	-8.7
505.95	1.2315E+6	4.4845	Inf	+341.6
506.13	1.2320E+6	4.4788	0.0412	+358.9
506.30	1.2325E+6	4.4887	0.0399	-7.3
506.50	1.2330E+6	4.4760	0.0409	+1.8
506.71	1.2335E+6	4.4802	0.0409	-0.2
506.88	1.2340E+6	4.4859	Inf	-358.4
507.06	1.2345E+6	4.4816	0.0408	-9.4
507.23	1.2350E+6	4.4845	Inf	+349.1
507.41	1.2355E+6	4.4717	Inf	-364.9
507.61	1.2360E+6	4.4887	0.0400	-1.1
507.81	1.2365E+6	4.4802	Inf	+354.4
507.99	1.2370E+6	4.4689	Inf	-368.2
508.16	1.2375E+6	4.4802	Inf	-362.2
508.31	1.2380E+6	4.4831	0.0399	-10.5
508.48	1.2385E+6	4.4774	0.0402	-5.1
508.64	1.2390E+6	4.4760	Inf	-369.8
508.81	1.2395E+6	4.4831	0.0399	+0.2
508.96	1.2400E+6	4.4774	Inf	+1.1
509.12	1.2405E+6	4.4732	0.0403	+2.0
509.32	1.2410E+6	4.4802	Inf	-15.0
509.49	1.2415E+6	4.4802	Inf	+362.2
509.66	1.2420E+6	4.4788	Inf	-365.1
509.80	1.2425E+6	4.4901	Inf	-354.0
509.97	1.2430E+6	4.4732	Inf	-360.7
510.14	1.2435E+6	4.4831	0.0415	-8.1
510.32	1.2440E+6	4.4802	Inf	-370.8
510.47	1.2445E+6	4.4802	Inf	-368.5
510.64	1.2450E+6	4.4717	Inf	-11.9
510.79	1.2455E+6	4.4760	0.0404	+356.0
510.94	1.2460E+6	4.4774	0.0403	+1.3
511.12	1.2465E+6	4.4774	Inf	+348.8
511.29	1.2470E+6	4.4802	Inf	-1.6
511.45	1.2475E+6	4.4760	Inf	-11.2
511.62	1.2480E+6	4.4802	0.0420	+363.1
511.80	1.2485E+6	4.4788	Inf	+355.5
511.99	1.2490E+6	4.4746	0.0393	-5.9
512.17	1.2495E+6	4.4746	0.0410	+360.4
512.35	1.2500E+6	4.4802	Inf	-368.7
512.50	1.2505E+6	4.4802	Inf	+346.9
512.67	1.2510E+6	4.4816	0.0403	+0.4
512.83	1.2515E+6	4.4703	0.0410	-7.2
513.00	1.2520E+6	4.4717	Inf	-367.2
513.16	1.2525E+6	4.4746	0.0397	+1.6
513.33	1.2530E+6	4.4717	Inf	+1.8
513.50	1.2535E+6	4.4732	0.0401	+0.0
513.68	1.2540E+6	4.4831	Inf	-356.8
513.85	1.2545E+6	4.4746	0.0407	-2.0
514.03	1.2550E+6	4.4760	Inf	+363.8
514.20	1.2555E+6	4.4788	Inf	-5.7
514.36	1.2560E+6	4.4774	0.0392	-0.5
514.53	1.2565E+6	4.4717	Inf	-14.0
514.70	1.2570E+6	4.4774	0.0399	-1.1
514.85	1.2575E+6	4.4774	0.0400	-6.3
515.01	1.2580E+6	4.4788	0.0389	-9.6
515.18	1.2585E+6	4.4802	0.0412	+0.7
515.34	1.2590E+6	4.4774	Inf	+Inf
515.51	1.2595E+6	4.4760	Inf	+347.1
515.68	1.2600E+6	4.4774	0.0378	-6.6
515.86	1.2605E+6	4.4689	Inf	-18.4
516.02	1.2610E+6	4.4689	Inf	-24.0
516.19	1.2615E+6	4.4732	0.0394	-0.7
516.39	1.2620E+6	4.4675	0.0401	-3.4
516.54	1.2625E+6	4.4689	Inf	+336.4
516.71	1.2630E+6	4.4717	Inf	-5.7
516.87	1.2635E+6	4.4732	Inf	+Inf
517.04	1.2640E+6	4.4760	Inf	-0.2
517.22	1.2645E+6	4.4788	Inf	+347.5
517.39	1.2650E+6	4.4732	0.0393	-6.4
517.56	1.2655E+6	4.4760	0.0399	-3.2
517.72	1.2660E+6	4.4746	Inf	+353.4
517.89	1.2665E+6	4.4661	0.0388	-3.4
518.07	1.2670E+6	4.4717	0.0399	-5.9
518.25	1.2675E+6	4.4746	Inf	-361.8
518.42	1.2680E+6	4.4746	0.0404	-4.8
518.59	1.2685E+6	4.4746	0.0396	-4.6
518.75	1.2690E+6	4.4689	0.0390	-5.9
518.92	1.2695E+6	4.4689	Inf	-355.4
519.10	1.2700E+6	4.4732	Inf	+2.7
519.27	1.2705E+6	4.4774	Inf	-18.1
519.43	1.2710E+6	4.4675	0.0397	+2.1
519.60	1.2715E+6	4.4760	0.0391	-11.0
519.77	1.2720E+6	4.4689	0.0388	+0.5
519.95	1.2725E+6	4.4689	Inf	+359.3
520.13	1.2730E+6	4.4717	Inf	-13.5
520.30	1.2735E+6	4.4633	Inf	-367.1
520.45	1.2740E+6	4.4703	Inf	+346.5
520.62	1.2745E+6	4.4689	Inf	+359.1
520.78	1.2750E+6	4.4746	Inf	-17.0
520.95	1.2755E+6	4.4760	Inf	-368.7
521.11	1.2760E+6	4.4717	Inf	+352.9
521.28	1.2765E+6	4.4732	Inf	+343.0
521.43	1.2770E+6	4.4760	Inf	-19.6
521.58	1.2775E+6	4.4717	Inf	-366.4
521.75	1.2780E+6	4.4689	0.0392	+356.3
521.93	1.2785E+6	4.4647	Inf	-15.5
522.10	1.2790E+6	4.4746	Inf	+Inf
522.26	1.2795E+6	4.4618	0.0389	-8.3
522.43	1.2800E+6	4.4647	Inf	+Inf
522.59	1.2805E+6	4.4746	Inf	-16.7
522.78	1.2810E+6	4.4788	Inf	-362.1
522.94	1.2815E+6	4.4689	Inf	+363.7
523.11	1.2820E+6	4.4661	Inf	+1.6
523.28	1.2825E+6	4.4788	0.0394	-1.4
523.44	1.2830E+6	4.4703	0.0388	-2.1
523.63	1.2835E+6	4.4732	Inf	+354.0
523.79	1.2840E+6	4.4703	Inf	-12.2
523.96	1.2845E+6	4.4717	0.0414	+364.9
524.12	1.2850E+6	4.4647	Inf	+360.5
524.29	1.2855E+6	4.4647	0.0392	-5.8
524.47	1.2860E+6	4.4746	Inf	-363.9
524.66	1.2865E+6	4.4732	Inf	+358.4
524.82	1.2870E+6	4.4732	0.0402	-3.5
524.99	1.2875E+6	4.4675	0.0392	-0.7
525.16	1.2880E+6	4.4746	Inf	+348.9
525.32	1.2885E+6	4.4675	0.0395	-2.8
525.49	1.2890E+6	4.4717	0.0393	-3.7
525.65	1.2895E+6	4.4703	Inf	-361.2
525.82	1.2900E+6	4.4717	0.0392	-1.4
525.99	1.2905E+6	4.4703	0.0392	+5.3
526.15	1.2910E+6	4.4647	0.0401	-1.9
526.30	1.2915E+6	4.4633	Inf	-369.1
526.49	1.2920E+6	4.4675	Inf	+Inf
526.65	1.2925E+6	4.4633	0.0391	-9.8
526.82	1.2930E+6	4.4703	Inf	-366.1
526.97	1.2935E+6	4.4703	Inf	+350.2
527.13	1.2940E+6	4.4717	Inf	-366.7
527.30	1.2945E+6	4.4661	Inf	-12.1
527.45	1.2950E+6	4.4689	Inf	-14.7
527.62	1.2955E+6	4.4661	Inf	+364.4
527.78	1.2960E+6	4.4647	Inf	-9.1
527.95	1.2965E+6	4.4703	Inf	-366.8
528.10	1.2970E+6	4.4703	Inf	+0.0
528.28	1.2975E+6	4.4689	Inf	+351.1
528.45	1.2980E+6	4.4661	0.0401	-7.7
528.60	1.2985E+6	4.4732	0.0389	+1.2
528.76	1.2990E+6	4.4717	0.0367	-10.3
528.95	1.2995E+6	4.4689	Inf	-360.0
529.12	1.3000E+6	4.4703	Inf	-2.3
529.30	1.3005E+6	4.4689	0.0383	-2.3
529.48	1.3010E+6	4.4717	Inf	+346.0
529.65	1.3015E+6	4.4675	Inf	-1.9
529.81	1.3020E+6	4.4703	Inf	+350.6
529.96	1.3025E+6	4.4633	Inf	-368.9
530.13	1.3030E+6	4.4703	0.0395	-3.1
530.31	1.3035E+6	4.4661	Inf	-365.9
530.48	1.3040E+6	4.4590	0.0382	-2.8
530.64	1.3045E+6	4.4746	0.0410	+0.2
530.83	1.3050E+6	4.4675	0.0389	-7.8
531.01	1.3055E+6	4.4618	Inf	-5.4
531.19	1.3060E+6	4.4732	Inf	+355.1
531.36	1.3065E+6	4.4746	Inf	+348.0
531.52	1.3070E+6	4.4647	Inf	-9.9
531.69	1.3075E+6	4.4633	Inf	+3.1
531.86	1.3080E+6	4.4661	Inf	+345.7
532.03	1.3085E+6	4.4675	0.0381	-10.9
532.19	1.3090E+6	4.4703	Inf	+5.7
532.36	1.3095E+6	4.4618	0.0402	+362.1
532.54	1.3100E+6	4.4703	0.0396	+0.0
532.71	1.3105E+6	4.4633	0.0385	+0.5
532.89	1.3110E+6	4.4703	Inf	+0.2
533.05	1.3115E+6	4.4675	Inf	-365.7
533.22	1.3120E+6	4.4647	Inf	+354.8
533.39	1.3125E+6	4.4618	0.0384	-2.8
533.54	1.3130E+6	4.4661	Inf	-360.0
533.69	1.3135E+6	4.4661	Inf	+359.5
533.84	1.3140E+6	4.4746	Inf	+354.1
534.02	1.3145E+6	4.4633	Inf	-367.4
534.19	1.3150E+6	4.4548	Inf	-14.5
534.37	1.3155E+6	4.4689	Inf	+356.0
534.54	1.3160E+6	4.4703	0.0397	-1.2
534.72	1.3165E+6	4.4647	Inf	+3.8
534.88	1.3170E+6	4.4675	Inf	+356.4
535.05	1.3175E+6	4.4647	0.0390	-8.8
535.22	1.3180E+6	4.4717	Inf	+349.1
535.37	1.3185E+6	4.4576	Inf	-357.2
535.53	1.3190E+6	4.4675	Inf	-357.2
535.70	1.3195E+6	4.4604	Inf	-1.0
535.87	1.3200E+6	4.4661	0.0391	-5.7
536.05	1.3205E+6	4.4661	0.0386	-5.0
536.22	1.3210E+6	4.4661	Inf	-368.6
536.38	1.3215E+6	4.4576	0.0393	+355.7
536.55	1.3220E+6	4.4689	Inf	-10.5
536.71	1.3225E+6	4.4689	Inf	-360.5
536.88	1.3230E+6	4.4576	0.0382	+0.2
537.08	1.3235E+6	4.4604	Inf	+350.7
537.25	1.3240E+6	4.4633	Inf	-14.3
537.40	1.3245E+6	4.4661	0.0377	-4.5
537.56	1.3250E+6	4.4689	Inf	+Inf
537.71	1.3255E+6	4.4604	0.0385	-3.8
537.88	1.3260E+6	4.4661	Inf	+Inf
538.03	1.3265E+6	4.4647	Inf	-9.8
538.20	1.3270E+6	4.4633	0.0392	-6.5
538.38	1.3275E+6	4.4689	0.0383	-3.4
538.56	1.3280E+6	4.4633	Inf	+Inf
538.73	1.3285E+6	4.4633	Inf	-0.7
538.91	1.3290E+6	4.4562	Inf	+350.4
539.08	1.3295E+6	4.4633	Inf	+335.8
539.24	1.3300E+6	4.4590	Inf	-16.5
539.41	1.3305E+6	4.4647	0.0395	-364.1
539.59	1.3310E+6	4.4618	0.0387	-7.4
539.78	1.3315E+6	4.4604	0.0387	-4.1
539.96	1.3320E+6	4.4661	0.0389	+2.4
540.12	1.3325E+6	4.4590	0.0396	+0.5
540.27	1.3330E+6	4.4647	0.0397	-2.4
540.44	1.3335E+6	4.4576	0.0398	+1.4
540.61	1.3340E+6	4.4633	Inf	+Inf
540.77	1.3345E+6	4.4618	0.0395	+1.2
540.94	1.3350E+6	4.4618	Inf	+358.3
541.11	1.3355E+6	4.4604	0.0383	-7.7
541.29	1.3360E+6	4.4633	Inf	-361.0
541.45	1.3365E+6	4.4618	Inf	-1.0
541.62	1.3370E+6	4.4576	Inf	+Inf
541.79	1.3375E+6	4.4633	Inf	-361.7
541.97	1.3380E+6	4.4647	Inf	-365.1
542.14	1.3385E+6	4.4604	0.0398	-8.9
542.32	1.3390E+6	4.4534	Inf	+354.0
542.50	1.3395E+6	4.4661	Inf	+Inf
542.67	1.3400E+6	4.4604	0.0387	-7.0
542.85	1.3405E+6	4.4534	Inf	-20.7
543.05	1.3410E+6	4.4717	Inf	+355.6
543.22	1.3415E+6	4.4647	Inf	-8.0
543.38	1.3420E+6	4.4590	Inf	-1.5
543.55	1.3425E+6	4.4590	Inf	+359.0
543.70	1.3430E+6	4.4618	Inf	+347.2
543.87	1.3435E+6	4.4604	Inf	-20.6
544.05	1.3440E+6	4.4689	Inf	-360.2
544.22	1.3445E+6	4.4618	0.0382	+346.2
544.38	1.3450E+6	4.4576	Inf	-360.5
544.55	1.3455E+6	4.4604	Inf	+353.0
544.70	1.3460E+6	4.4590	0.0402	+3.1
544.86	1.3465E+6	4.4590	0.0392	-5.1
545.03	1.3470E+6	4.4633	Inf	+354.4
545.20	1.3475E+6	4.4618	Inf	-15.8
545.35	1.3480E+6	4.4604	Inf	+327.0
545.51	1.3485E+6	4.4519	Inf	-10.7
545.68	1.3490E+6	4.4562	Inf	-367.1
545.86	1.3495E+6	4.4505	0.0381	-6.1
546.08	1.3500E+6	4.4590	Inf	-371.9
546.25	1.3505E+6	4.4534	Inf	+348.8
546.43	1.3510E+6	4.4633	0.0397	-8.0
546.63	1.3515E+6	4.4590	0.0383	-8.5
546.81	1.3520E+6	4.4647	0.0384	-1.0
546.96	1.3525E+6	4.4633	Inf	-26.9
547.12	1.3530E+6	4.4534	0.0386	-1.2
547.29	1.3535E+6	4.4590	0.0387	+3.2
547.46	1.3540E+6	4.4604	0.0379	-7.3
547.62	1.3545E+6	4.4590	Inf	+346.6
547.78	1.3550E+6	4.4647	0.0399	-4.6
547.94	1.3555E+6	4.4562	Inf	-8.8
548.12	1.3560E+6	4.4604	Inf	-11.0
548.29	1.3565E+6	4.4633	Inf	+362.9
548.46	1.3570E+6	4.4534	Inf	-363.2
548.64	1.3575E+6	4.4562	0.0383	-8.3
548.82	1.3580E+6	4.4519	Inf	-9.0
549.00	1.3585E+6	4.4618	Inf	+335.8
549.20	1.3590E+6	4.4548	Inf	-18.6
549.39	1.3595E+6	4.4604	Inf	+355.6
549.57	1.3600E+6	4.4576	0.0389	-8.6
549.74	1.3605E+6	4.4590	Inf	+351.7
549.90	1.3610E+6	4.4604	0.0388	-6.4
550.07	1.3615E+6	4.4548	0.0380	-11.3
550.24	1.3620E+6	4.4576	Inf	+348.2
550.44	1.3625E+6	4.4548	Inf	-359.3
550.62	1.3630E+6	4.4590	Inf	+349.9
550.78	1.3635E+6	4.4548	0.0384	-0.5
550.97	1.3640E+6	4.4562	Inf	-360.2
551.13	1.3645E+6	4.4505	Inf	-358.3
551.32	1.3650E+6	4.4590	0.0378	-2.2
551.52	1.3655E+6	4.4505	Inf	+349.2
551.68	1.3660E+6	4.4534	Inf	+358.0
551.85	1.3665E+6	4.4633	Inf	-360.7
552.01	1.3670E+6	4.4562	0.0388	-4.7
552.18	1.3675E+6	4.4534	Inf	+344.0
552.37	1.3680E+6	4.4534	0.0379	-4.7
552.55	1.3685E+6	4.4618	Inf	+359.5
552.73	1.3690E+6	4.4576	Inf	+349.2
552.90	1.3695E+6	4.4562	Inf	-3.0
553.05	1.3700E+6	4.4576	0.0396	+1.5
553.23	1.3705E+6	4.4519	Inf	+357.5
553.41	1.3710E+6	4.4491	Inf	-7.9
553.58	1.3715E+6	4.4618	0.0393	-4.7
553.75	1.3720E+6	4.4519	0.0380	-3.5
553.94	1.3725E+6	4.4576	Inf	-371.4
554.11	1.3730E+6	4.4477	0.0388	-1.0
554.29	1.3735E+6	4.4505	Inf	-358.5
554.46	1.3740E+6	4.4519	Inf	-362.2
554.62	1.3745E+6	4.4590	Inf	-354.8
554.83	1.3750E+6	4.4618	Inf	-356.8
554.99	1.3755E+6	4.4505	Inf	-20.3
555.16	1.3760E+6	4.4618	Inf	+363.5
555.34	1.3765E+6	4.4562	Inf	-8.7
555.51	1.3770E+6	4.4505	0.0384	-6.2
555.67	1.3775E+6	4.4576	Inf	-13.9
555.87	1.3780E+6	4.4562	Inf	-4.0
556.04	1.3785E+6	4.4548	Inf	-365.9
556.21	1.3790E+6	4.4519	Inf	-366.2
556.37	1.3795E+6	4.4590	0.0380	+3.0
556.54	1.3800E+6	4.4491	Inf	+343.2
556.72	1.3805E+6	4.4633	Inf	+365.2
556.92	1.3810E+6	4.4519	Inf	+359.3
557.09	1.3815E+6	4.4576	Inf	-7.2
557.25	1.3820E+6	4.4519	Inf	-11.7
557.44	1.3825E+6	4.4590	0.0379	-7.2
557.62	1.3830E+6	4.4505	Inf	+359.0
557.79	1.3835E+6	4.4633	Inf	+0.5
557.97	1.3840E+6	4.4548	0.0386	-0.2
558.17	1.3845E+6	4.4534	0.0370	-1.0
558.34	1.3850E+6	4.4534	Inf	-362.5
558.49	1.3855E+6	4.4519	Inf	+357.3
558.65	1.3860E+6	4.4534	Inf	+0.7
558.82	1.3865E+6	4.4590	Inf	+349.3
559.00	1.3870E+6	4.4505	Inf	+364.5
559.20	1.3875E+6	4.4618	Inf	-355.2
559.37	1.3880E+6	4.4519	0.0380	-2.3
559.57	1.3885E+6	4.4618	0.0387	+1.3
559.75	1.3890E+6	4.4477	0.0394	-3.7
559.95	1.3895E+6	4.4519	0.0393	-2.2
560.11	1.3900E+6	4.4562	Inf	-4.5
560.30	1.3905E+6	4.4576	Inf	+Inf
560.46	1.3910E+6	4.4449	Inf	+Inf
560.63	1.3915E+6	4.4534	Inf	-357.0
560.80	1.3920E+6	4.4534	0.0389	+2.2
560.96	1.3925E+6	4.4548	Inf	-19.0
561.13	1.3930E+6	4.4562	0.0385	-6.3
561.31	1.3935E+6	4.4505	0.0397	-6.5
561.53	1.3940E+6	4.4590	0.0386	-4.3
561.73	1.3945E+6	4.4562	0.0385	-8.1
561.89	1.3950E+6	4.4477	Inf	+352.5
562.06	1.3955E+6	4.4491	Inf	+Inf
562.23	1.3960E+6	4.4562	Inf	-6.8
562.39	1.3965E+6	4.4562	0.0355	-11.0
562.58	1.3970E+6	4.4562	Inf	-356.0
562.74	1.3975E+6	4.4491	Inf	-364.8
562.91	1.3980E+6	4.4534	Inf	+Inf
563.08	1.3985E+6	4.4477	0.0387	-6.8
563.26	1.3990E+6	4.4548	Inf	-7.3
563.41	1.3995E+6	4.4534	Inf	-21.2
563.56	1.4000E+6	4.4491	Inf	-367.8
563.74	1.4005E+6	4.4534	0.0385	+5.6
563.89	1.4010E+6	4.4491	0.0385	-3.5
564.04	1.4015E+6	4.4562	Inf	+356.5
564.22	1.4020E+6	4.4463	0.0375	-11.1
564.39	1.4025E+6	4.4519	0.0364	-7.3
564.57	1.4030E+6	4.4590	0.0378	+2.3
564.79	1.4035E+6	4.4491	0.0391	-8.1
564.99	1.4040E+6	4.4548	Inf	+Inf
565.15	1.4045E+6	4.4562	Inf	-7.6
565.32	1.4050E+6	4.4435	Inf	+343.3
565.50	1.4055E+6	4.4491	Inf	+341.2
565.67	1.4060E+6	4.4491	0.0375	-5.8
565.85	1.4065E+6	4.4604	0.0397	+364.8
566.07	1.4070E+6	4.4491	Inf	+333.6
566.25	1.4075E+6	4.4548	Inf	-359.7
566.42	1.4080E+6	4.4548	0.0376	-10.6
566.58	1.4085E+6	4.4534	Inf	-9.4
566.75	1.4090E+6	4.4548	Inf	+337.4
566.92	1.4095E+6	4.4534	0.0389	-5.6
567.08	1.4100E+6	4.4477	Inf	+Inf
567.25	1.4105E+6	4.4477	0.0375	-2.3
567.42	1.4110E+6	4.4519	0.0356	-0.3
567.60	1.4115E+6	4.4519	Inf	-361.0
567.76	1.4120E+6	4.4477	0.0381	-6.1
567.93	1.4125E+6	4.4534	0.0360	-1.3
568.12	1.4130E+6	4.4604	Inf	-360.3
568.30	1.4135E+6	4.4477	Inf	-370.7
568.48	1.4140E+6	4.4449	Inf	+4.3
568.65	1.4145E+6	4.4435	Inf	+364.6
568.81	1.4150E+6	4.4519	Inf	-359.0
568.98	1.4155E+6	4.4505	Inf	-30.2
569.14	1.4160E+6	4.4491	Inf	+352.1
569.29	1.4165E+6	4.4519	Inf	-360.3
569.48	1.4170E+6	4.4519	0.0385	-6.4
569.64	1.4175E+6	4.4519	Inf	+Inf
569.81	1.4180E+6	4.4420	Inf	-17.1
569.98	1.4185E+6	4.4392	0.0374	+356.7
570.14	1.4190E+6	4.4491	0.0373	-3.1
570.31	1.4195E+6	4.4505	0.0367	+5.4
570.46	1.4200E+6	4.4477	Inf	-24.0
570.64	1.4205E+6	4.4463	Inf	-12.8
570.81	1.4210E+6	4.4477	0.0382	-1.0
570.99	1.4215E+6	4.4548	0.0382	-8.2
571.14	1.4220E+6	4.4491	Inf	-9.5
571.31	1.4225E+6	4.4477	Inf	-359.2
571.48	1.4230E+6	4.4505	0.0373	+1.0
571.67	1.4235E+6	4.4491	Inf	+363.6
571.84	1.4240E+6	4.4534	Inf	-10.0
572.01	1.4245E+6	4.4534	Inf	+Inf
572.17	1.4250E+6	4.4590	Inf	+Inf
572.34	1.4255E+6	4.4420	Inf	-359.7
572.52	1.4260E+6	4.4463	Inf	+346.1
572.69	1.4265E+6	4.4505	Inf	+345.4
572.86	1.4270E+6	4.4491	0.0372	-5.4
573.02	1.4275E+6	4.4406	0.0355	+0.3
573.20	1.4280E+6	4.4491	0.0378	-0.8
573.37	1.4285E+6	4.4590	0.0381	-7.4
573.55	1.4290E+6	4.4449	0.0382	+0.0
573.74	1.4295E+6	4.4477	Inf	-359.7
573.90	1.4300E+6	4.4435	Inf	-357.7
574.07	1.4305E+6	4.4449	0.0382	+4.6
574.24	1.4310E+6	4.4505	Inf	-13.4
574.40	1.4315E+6	4.4534	Inf	-6.7
574.57	1.4320E+6	4.4463	Inf	+Inf
574.73	1.4325E+6	4.4519	0.0380	-3.9
574.90	1.4330E+6	4.4449	0.0380	-8.8
575.07	1.4335E+6	4.4420	0.0379	-2.3
575.23	1.4340E+6	4.4463	0.0374	+1.8
575.40	1.4345E+6	4.4449	0.0379	-7.7
575.58	1.4350E+6	4.4449	Inf	-361.3
575.73	1.4355E+6	4.4519	Inf	-368.0
575.90	1.4360E+6	4.4505	Inf	-371.9
576.06	1.4365E+6	4.4435	Inf	+352.3
576.23	1.4370E+6	4.4519	Inf	-9.3
576.41	1.4375E+6	4.4420	Inf	+347.3
576.58	1.4380E+6	4.4463	0.0378	-3.1
576.75	1.4385E+6	4.4491	Inf	-11.4
576.91	1.4390E+6	4.4463	Inf	+Inf
577.06	1.4395E+6	4.4449	Inf	-362.6
577.21	1.4400E+6	4.4406	0.0377	-357.9
577.36	1.4405E+6	4.4435	0.0374	-1.0
577.56	1.4410E+6	4.4477	Inf	-361.3
577.73	1.4415E+6	4.4420	0.0362	+0.3
577.88	1.4420E+6	4.4463	Inf	-10.4
578.04	1.4425E+6	4.4449	Inf	-373.3
578.21	1.4430E+6	4.4519	Inf	-13.3
578.36	1.4435E+6	4.4477	Inf	+2.6
578.53	1.4440E+6	4.4463	0.0376	-3.1
578.73	1.4445E+6	4.4406	0.0371	-6.8
578.91	1.4450E+6	4.4435	Inf	-11.5
579.07	1.4455E+6	4.4435	0.0386	-0.8
579.24	1.4460E+6	4.4477	Inf	+348.8
579.41	1.4465E+6	4.4491	Inf	+343.6
579.57	1.4470E+6	4.4435	Inf	-363.6
579.74	1.4475E+6	4.4534	Inf	+3.9
579.92	1.4480E+6	4.4406	Inf	+349.1
580.09	1.4485E+6	4.4491	Inf	+355.3
580.26	1.4490E+6	4.4519	0.0358	-3.4
580.44	1.4495E+6	4.4406	Inf	-13.1
580.60	1.4500E+6	4.4435	Inf	+339.4
580.77	1.4505E+6	4.4463	Inf	-357.4
580.94	1.4510E+6	4.4406	Inf	+348.2
581.12	1.4515E+6	4.4435	Inf	-363.7
581.29	1.4520E+6	4.4463	0.0371	+1.8
581.47	1.4525E+6	4.4378	Inf	-362.6
581.64	1.4530E+6	4.4435	0.0394	+362.3
581.82	1.4535E+6	4.4378	Inf	-367.3
581.99	1.4540E+6	4.4477	Inf	-9.4
582.15	1.4545E+6	4.4463	Inf	-18.8
582.32	1.4550E+6	4.4364	0.0375	+0.3
582.50	1.4555E+6	4.4392	Inf	+Inf
582.67	1.4560E+6	4.4449	0.0376	-7.9
582.85	1.4565E+6	4.4364	Inf	+355.5
583.00	1.4570E+6	4.4364	0.0377	-4.7
583.17	1.4575E+6	4.4392	Inf	+359.2
583.33	1.4580E+6	4.4406	0.0380	-8.4
583.51	1.4585E+6	4.4378	Inf	+364.2
583.68	1.4590E+6	4.4350	Inf	-359.5
583.83	1.4595E+6	4.4477	0.0384	-10.3
583.98	1.4600E+6	4.4406	Inf	+359.2
584.15	1.4605E+6	4.4364	0.0379	-4.7
584.30	1.4610E+6	4.4420	0.0375	-0.5
584.45	1.4615E+6	4.4449	Inf	+Inf
584.61	1.4620E+6	4.4406	0.0376	-1.6
584.78	1.4625E+6	4.4420	Inf	-354.7
584.93	1.4630E+6	4.4420	0.0378	-11.3
585.09	1.4635E+6	4.4477	Inf	-358.9
585.26	1.4640E+6	4.4392	Inf	-3.7
585.43	1.4645E+6	4.4364	0.0372	-13.5
585.61	1.4650E+6	4.4392	0.0351	-4.0
585.81	1.4655E+6	4.4350	Inf	-17.7
585.96	1.4660E+6	4.4463	Inf	-373.8
586.12	1.4665E+6	4.4378	Inf	+Inf
586.28	1.4670E+6	4.4420	0.0376	-0.5
586.44	1.4675E+6	4.4420	0.0384	-5.6
586.59	1.4680E+6	4.4378	Inf	+Inf
586.74	1.4685E+6	4.4406	Inf	-367.4
586.91	1.4690E+6	4.4420	Inf	-8.2
587.06	1.4695E+6	4.4449	Inf	-360.3
587.21	1.4700E+6	4.4449	0.0373	-5.5
587.37	1.4705E+6	4.4435	0.0350	+1.1
587.56	1.4710E+6	4.4378	Inf	-358.4
587.72	1.4715E+6	4.4392	Inf	-16.1
587.89	1.4720E+6	4.4364	0.0369	-5.8
588.09	1.4725E+6	4.4279	Inf	-366.4
588.25	1.4730E+6	4.4449	0.0369	-1.1
588.42	1.4735E+6	4.4463	0.0369	-8.2
588.59	1.4740E+6	4.4293	0.0372	-0.5
588.75	1.4745E+6	4.4406	Inf	-16.1
588.92	1.4750E+6	4.4279	Inf	+354.2
589.09	1.4755E+6	4.4420	Inf	-366.4
589.25	1.4760E+6	4.4406	Inf	-359.2
589.42	1.4765E+6	4.4307	0.0380	+1.6
589.59	1.4770E+6	4.4420	Inf	+Inf
589.75	1.4775E+6	4.4279	Inf	+Inf
589.90	1.4780E+6	4.4364	0.0374	+357.6
590.07	1.4785E+6	4.4378	Inf	-9.9
590.23	1.4790E+6	4.4336	0.0353	-14.4
590.40	1.4795E+6	4.4350	Inf	+354.4
590.57	1.4800E+6	4.4293	Inf	-18.6
590.73	1.4805E+6	4.4406	Inf	-1.6
590.90	1.4810E+6	4.4435	Inf	+336.8
591.07	1.4815E+6	4.4435	0.0372	-1.6
591.25	1.4820E+6	4.4321	0.0355	+0.8
591.41	1.4825E+6	4.4350	Inf	-13.3
591.58	1.4830E+6	4.4364	0.0380	-5.9
591.78	1.4835E+6	4.4420	Inf	+354.1
591.95	1.4840E+6	4.4336	Inf	+346.1
592.10	1.4845E+6	4.4378	Inf	-368.0
592.25	1.4850E+6	4.4449	Inf	-12.3
592.39	1.4855E+6	4.4336	Inf	+Inf
592.54	1.4860E+6	4.4435	Inf	-14.2
592.71	1.4865E+6	4.4336	0.0379	-2.4
592.88	1.4870E+6	4.4293	0.0384	-7.7
593.03	1.4875E+6	4.4321	0.0376	-7.5
593.18	1.4880E+6	4.4364	0.0377	-1.1
593.34	1.4885E+6	4.4336	Inf	+360.8
593.51	1.4890E+6	4.4279	Inf	-16.9
593.68	1.4895E+6	4.4293	0.0386	-3.8
593.84	1.4900E+6	4.4364	Inf	-9.1
594.01	1.4905E+6	4.4378	Inf	+353.6
594.19	1.4910E+6	4.4350	Inf	-360.8
594.34	1.4915E+6	4.4350	Inf	+Inf
594.49	1.4920E+6	4.4336	0.0359	+0.3
594.66	1.4925E+6	4.4406	0.0382	-1.9
594.84	1.4930E+6	4.4279	Inf	-17.2
595.01	1.4935E+6	4.4279	Inf	+352.7
595.16	1.4940E+6	4.4406	0.0370	-8.3
595.34	1.4945E+6	4.4293	0.0379	-9.2
595.52	1.4950E+6	4.4307	0.0364	+0.3
595.71	1.4955E+6	4.4265	0.0357	-3.5
595.89	1.4960E+6	4.4378	0.0375	-3.2
596.09	1.4965E+6	4.4321	0.0368	-4.6
596.27	1.4970E+6	4.4279	Inf	+362.7
596.44	1.4975E+6	4.4364	0.0349	+5.1
596.60	1.4980E+6	4.4336	Inf	+Inf
596.79	1.4985E+6	4.4293	0.0353	-1.9
596.95	1.4990E+6	4.4321	0.0374	-1.3
597.13	1.4995E+6	4.4279	0.0359	-1.3
597.30	1.5000E+6	4.4279	0.0366	-10.3
597.49	1.5005E+6	4.4364	Inf	+358.4
597.65	1.5010E+6	4.4251	Inf	+7.0
597.82	1.5015E+6	4.4336	Inf	+Inf
598.02	1.5020E+6	4.4350	Inf	+Inf
598.18	1.5025E+6	4.4251	0.0357	-5.7
598.38	1.5030E+6	4.4293	0.0373	-3.8
598.57	1.5035E+6	4.4265	Inf	+3.2
598.75	1.5040E+6	4.4321	0.0378	-9.8
598.93	1.5045E+6	4.4336	Inf	-9.0
599.08	1.5050E+6	4.4307	0.0366	-2.4
599.25	1.5055E+6	4.4350	0.0364	-3.3
599.41	1.5060E+6	4.4378	Inf	-1.1
599.58	1.5065E+6	4.4336	Inf	-18.0
599.75	1.5070E+6	4.4350	0.0368	-5.7
599.90	1.5075E+6	4.4336	0.0368	-6.8
600.05	1.5080E+6	4.4321	0.0364	-2.4
600.20	1.5085E+6	4.4293	Inf	+8.2
600.36	1.5090E+6	4.4307	0.0348	-13.8
600.54	1.5095E+6	4.4279	Inf	+Inf
600.71	1.5100E+6	4.4265	Inf	+350.2
600.88	1.5105E+6	4.4350	Inf	-361.9
601.06	1.5110E+6	4.4293	Inf	+337.4
601.23	1.5115E+6	4.4364	0.0364	-3.3
601.41	1.5120E+6	4.4293	0.0376	-1.4
601.59	1.5125E+6	4.4279	Inf	-354.0
601.76	1.5130E+6	4.4279	Inf	-16.6
601.92	1.5135E+6	4.4336	Inf	-13.4
602.08	1.5140E+6	4.4307	0.0364	-2.2
602.26	1.5145E+6	4.4336	Inf	-365.7
602.41	1.5150E+6	4.4265	Inf	+358.9
602.59	1.5155E+6	4.4392	Inf	+347.2
602.77	1.5160E+6	4.4251	Inf	-355.6
602.94	1.5165E+6	4.4321	Inf	-371.5
603.11	1.5170E+6	4.4279	Inf	-26.8
603.27	1.5175E+6	4.4251	Inf	+349.1
603.46	1.5180E+6	4.4350	Inf	-2.5
603.62	1.5185E+6	4.4378	Inf	-357.3
603.79	1.5190E+6	4.4251	Inf	+329.2
603.97	1.5195E+6	4.4321	Inf	+348.2
604.15	1.5200E+6	4.4392	Inf	+Inf
604.32	1.5205E+6	4.4208	0.0371	-11.8
604.52	1.5210E+6	4.4293	Inf	-358.4
604.70	1.5215E+6	4.4208	Inf	+361.1
604.87	1.5220E+6	4.4364	0.0371	-9.1
605.05	1.5225E+6	4.4293	0.0351	+4.4
605.22	1.5230E+6	4.4251	0.0370	-5.7
605.40	1.5235E+6	4.4336	Inf	+341.2
605.57	1.5240E+6	4.4279	Inf	-368.5
605.74	1.5245E+6	4.4265	Inf	-0.3
605.93	1.5250E+6	4.4265	Inf	+352.3
606.10	1.5255E+6	4.4321	Inf	-361.6
606.27	1.5260E+6	4.4307	Inf	+339.4
606.43	1.5265E+6	4.4237	Inf	+Inf
606.62	1.5270E+6	4.4378	0.0346	-4.9
606.80	1.5275E+6	4.4265	0.0381	-7.7
607.00	1.5280E+6	4.4336	0.0370	-5.5
607.18	1.5285E+6	4.4307	Inf	+Inf
607.36	1.5290E+6	4.4364	0.0367	-5.0
607.53	1.5295E+6	4.4237	Inf	-362.2
607.71	1.5300E+6	4.4293	Inf	-11.5
607.90	1.5305E+6	4.4222	Inf	+358.6
608.08	1.5310E+6	4.4265	0.0357	-3.3
608.26	1.5315E+6	4.4208	0.0363	-6.6
608.43	1.5320E+6	4.4222	Inf	+353.7
608.58	1.5325E+6	4.4293	Inf	+338.4
608.78	1.5330E+6	4.4350	Inf	-20.9
608.94	1.5335E+6	4.4237	Inf	-361.1
609.13	1.5340E+6	4.4336	Inf	-11.6
609.31	1.5345E+6	4.4180	Inf	-5.8
609.48	1.5350E+6	4.4307	Inf	+343.7
609.66	1.5355E+6	4.4237	Inf	-366.6
609.84	1.5360E+6	4.4265	Inf	-12.7
610.01	1.5365E+6	4.4321	Inf	+345.3
610.19	1.5370E+6	4.4222	0.0363	-0.3
610.36	1.5375E+6	4.4208	0.0380	-0.3
610.54	1.5380E+6	4.4350	0.0366	-2.2
610.72	1.5385E+6	4.4279	Inf	-7.5
610.89	1.5390E+6	4.4194	0.0357	-5.9
611.07	1.5395E+6	4.4321	Inf	+1.1
611.26	1.5400E+6	4.4265	Inf	+Inf
611.46	1.5405E+6	4.4307	Inf	-25.5
611.62	1.5410E+6	4.4251	Inf	+359.2
611.79	1.5415E+6	4.4251	Inf	+Inf
611.95	1.5420E+6	4.4336	0.0364	-4.4
612.14	1.5425E+6	4.4265	Inf	-13.1
612.32	1.5430E+6	4.4350	0.0370	-2.5
612.50	1.5435E+6	4.4265	Inf	+Inf
612.67	1.5440E+6	4.4251	Inf	+Inf
612.85	1.5445E+6	4.4265	Inf	+362.0
613.02	1.5450E+6	4.4251	0.0369	-2.2
613.18	1.5455E+6	4.4321	Inf	+358.1
613.35	1.5460E+6	4.4293	Inf	+Inf
613.50	1.5465E+6	4.4265	0.0366	+3.1
613.67	1.5470E+6	4.4251	0.0353	-1.7
613.85	1.5475E+6	4.4265	Inf	-360.6
614.02	1.5480E+6	4.4251	Inf	+359.7
614.18	1.5485E+6	4.4307	Inf	-363.1
614.35	1.5490E+6	4.4208	Inf	+342.7
614.53	1.5495E+6	4.4208	0.0357	-7.8
614.68	1.5500E+6	4.4251	Inf	+349.4
614.83	1.5505E+6	4.4307	Inf	+Inf
615.00	1.5510E+6	4.4392	0.0355	-1.9
615.15	1.5515E+6	4.4194	Inf	-19.9
615.33	1.5520E+6	4.4208	Inf	-9.8
615.50	1.5525E+6	4.4208	0.0381	-5.6
615.66	1.5530E+6	4.4237	0.0358	+1.7
615.85	1.5535E+6	4.4265	0.0362	-2.8
616.03	1.5540E+6	4.4237	Inf	+345.2
616.18	1.5545E+6	4.4251	Inf	-12.9
616.31	1.5550E+6	4.4208	Inf	-363.9
616.45	1.5555E+6	4.4208	0.0372	-6.4
616.61	1.5560E+6	4.4251	Inf	-368.7
616.79	1.5565E+6	4.4208	Inf	+Inf
616.96	1.5570E+6	4.4208	Inf	-360.8
617.13	1.5575E+6	4.4251	0.0379	-6.7
617.31	1.5580E+6	4.4166	0.0370	-3.1
617.48	1.5585E+6	4.4222	0.0357	+1.4
617.64	1.5590E+6	4.4222	0.0373	-5.6
617.82	1.5595E+6	4.4208	Inf	+Inf
617.96	1.5600E+6	4.4194	0.0366	+2.8
618.12	1.5605E+6	4.4237	0.0353	+0.8
618.31	1.5610E+6	4.4336	Inf	+363.9
618.47	1.5615E+6	4.4251	Inf	+343.2
618.64	1.5620E+6	4.4166	0.0350	-15.4
618.81	1.5625E+6	4.4251	Inf	-365.6
618.97	1.5630E+6	4.4194	0.0364	-4.5
619.16	1.5635E+6	4.4279	0.0366	-7.0
619.34	1.5640E+6	4.4194	Inf	-2.8
619.52	1.5645E+6	4.4208	0.0375	-9.0
619.71	1.5650E+6	4.4222	0.0351	-9.0
619.89	1.5655E+6	4.4265	0.0348	+1.7
620.05	1.5660E+6	4.4251	Inf	-8.5
620.22	1.5665E+6	4.4237	0.0342	-2.5
620.40	1.5670E+6	4.4208	Inf	-13.8
620.57	1.5675E+6	4.4138	Inf	+356.6
620.74	1.5680E+6	4.4152	Inf	+Inf
620.90	1.5685E+6	4.4138	Inf	-17.5
621.07	1.5690E+6	4.4194	0.0353	+1.1
621.24	1.5695E+6	4.4237	Inf	-366.8
621.40	1.5700E+6	4.4208	0.0371	-3.1
621.57	1.5705E+6	4.4279	Inf	+Inf
621.73	1.5710E+6	4.4180	Inf	+Inf
621.90	1.5715E+6	4.4265	Inf	+361.1
622.07	1.5720E+6	4.4293	0.0367	+355.8
622.23	1.5725E+6	4.4152	0.0354	-10.7
622.45	1.5730E+6	4.4237	Inf	+Inf
622.62	1.5735E+6	4.4336	Inf	-372.5
622.78	1.5740E+6	4.4152	Inf	-18.4
622.96	1.5745E+6	4.4194	0.0363	-5.1
623.13	1.5750E+6	4.4265	Inf	-4.0
623.30	1.5755E+6	4.4251	0.0375	-5.7
623.46	1.5760E+6	4.4208	Inf	+Inf
623.63	1.5765E+6	4.4293	Inf	+345.0
623.81	1.5770E+6	4.4152	0.0363	-5.9
624.01	1.5775E+6	4.4208	Inf	+346.4
624.18	1.5780E+6	4.4265	Inf	+348.6
624.34	1.5785E+6	4.4152	0.0355	-2.8
624.51	1.5790E+6	4.4123	0.0338	+1.7
624.68	1.5795E+6	4.4265	Inf	-20.3
624.84	1.5800E+6	4.4251	0.0358	-9.1
625.03	1.5805E+6	4.4180	Inf	-358.3
625.19	1.5810E+6	4.4138	Inf	+338.9
625.37	1.5815E+6	4.4208	Inf	+1.1
625.51	1.5820E+6	4.4138	Inf	-356.9
625.66	1.5825E+6	4.4166	Inf	-8.6
625.83	1.5830E+6	4.4166	Inf	+359.7
625.99	1.5835E+6	4.4180	0.0359	-3.7
626.16	1.5840E+6	4.4279	0.0365	-7.1
626.34	1.5845E+6	4.4123	Inf	+Inf
626.51	1.5850E+6	4.4152	0.0372	+354.9
626.67	1.5855E+6	4.4237	Inf	+354.6
626.84	1.5860E+6	4.4222	Inf	-360.0
627.00	1.5865E+6	4.4138	Inf	-356.6
627.17	1.5870E+6	4.4194	Inf	-14.3
627.34	1.5875E+6	4.4222	0.0344	-8.6
627.50	1.5880E+6	4.4180	Inf	+349.4
627.67	1.5885E+6	4.4180	Inf	-363.7
627.84	1.5890E+6	4.4123	Inf	+Inf
628.00	1.5895E+6	4.4194	0.0357	-7.7
628.17	1.5900E+6	4.4180	Inf	-17.8
628.32	1.5905E+6	4.4123	Inf	-6.0
628.47	1.5910E+6	4.4109	0.0348	-15.2
628.63	1.5915E+6	4.4166	Inf	-360.3
628.80	1.5920E+6	4.4166	Inf	+342.7
628.95	1.5925E+6	4.4237	Inf	-12.9
629.12	1.5930E+6	4.4166	Inf	+343.4
629.28	1.5935E+6	4.4222	0.0368	-9.4
629.47	1.5940E+6	4.4222	Inf	-370.9
629.63	1.5945E+6	4.4138	0.0363	-7.8
629.80	1.5950E+6	4.4123	Inf	+Inf
629.97	1.5955E+6	4.4166	0.0343	-2.9
630.15	1.5960E+6	4.4180	Inf	+344.4
630.32	1.5965E+6	4.4138	0.0361	-3.2
630.50	1.5970E+6	4.4166	0.0367	+358.3
630.65	1.5975E+6	4.4152	Inf	+2.6
630.81	1.5980E+6	4.4222	Inf	-357.1
630.98	1.5985E+6	4.4123	Inf	-8.3
631.15	1.5990E+6	4.4166	Inf	-0.3
631.31	1.5995E+6	4.4194	Inf	-358.0
631.45	1.6000E+6	4.4123	0.0375	-8.1
631.58	1.6005E+6	4.4194	0.0348	-11.0
631.73	1.6010E+6	4.4152	Inf	+Inf
631.86	1.6015E+6	4.4180	0.0360	-1.7
631.99	1.6020E+6	4.4208	0.0377	-4.0
632.18	1.6025E+6	4.4208	0.0350	-10.1
632.34	1.6030E+6	4.4265	Inf	-7.5
632.49	1.6035E+6	4.4180	Inf	-0.3
632.62	1.6040E+6	4.4109	0.0372	-9.2
632.79	1.6045E+6	4.4095	Inf	+353.1
632.92	1.6050E+6	4.4138	Inf	-356.0
633.06	1.6055E+6	4.4138	0.0369	-1.4
633.19	1.6060E+6	4.4152	Inf	-356.0
633.36	1.6065E+6	4.4307	0.0364	-4.0
633.52	1.6070E+6	4.4251	Inf	+Inf
633.69	1.6075E+6	4.4222	Inf	+Inf
633.82	1.6080E+6	4.4293	0.0373	-3.2
633.97	1.6085E+6	4.4265	Inf	-16.5
634.14	1.6090E+6	4.4364	Inf	-369.0
634.30	1.6095E+6	4.4251	Inf	+Inf
634.47	1.6100E+6	4.4336	Inf	-27.5
634.64	1.6105E+6	4.4293	0.0361	-3.8
634.81	1.6110E+6	4.4166	Inf	+Inf
634.99	1.6115E+6	4.4293	Inf	+Inf
635.17	1.6120E+6	4.4307	0.0371	-0.6
635.34	1.6125E+6	4.4265	0.0360	-1.2
635.52	1.6130E+6	4.4194	Inf	+Inf
635.69	1.6135E+6	4.4251	Inf	+350.4
635.85	1.6140E+6	4.4336	0.0360	-2.6
636.03	1.6145E+6	4.4251	Inf	+345.2
636.20	1.6150E+6	4.4307	Inf	+347.5
636.40	1.6155E+6	4.4222	Inf	+Inf
636.58	1.6160E+6	4.4265	0.0363	-8.7
636.75	1.6165E+6	4.4208	0.0362	-0.6
636.92	1.6170E+6	4.4321	0.0357	+3.2
637.12	1.6175E+6	4.4208	Inf	+349.8
637.28	1.6180E+6	4.4208	0.0369	-8.2
637.47	1.6185E+6	4.4237	0.0359	-7.0
637.65	1.6190E+6	4.4237	Inf	+Inf
637.83	1.6195E+6	4.4307	0.0356	-1.2
638.00	1.6200E+6	4.4222	Inf	+352.4
638.16	1.6205E+6	4.4321	Inf	+361.8
638.33	1.6210E+6	4.4180	0.0363	+361.2
638.51	1.6215E+6	4.4166	0.0360	-10.2
638.68	1.6220E+6	4.4222	0.0361	-7.6
638.85	1.6225E+6	4.4251	Inf	-358.0
638.98	1.6230E+6	4.4237	0.0371	-11.4
639.11	1.6235E+6	4.4307	0.0364	-3.8
639.29	1.6240E+6	4.4237	Inf	-15.8
639.46	1.6245E+6	4.4336	Inf	-358.5
639.63	1.6250E+6	4.4265	0.0368	+362.0
639.79	1.6255E+6	4.4279	Inf	-360.9
639.96	1.6260E+6	4.4166	Inf	+346.3
640.13	1.6265E+6	4.4152	0.0365	+1.8
640.26	1.6270E+6	4.4251	0.0343	+2.6
640.42	1.6275E+6	4.4251	0.0357	-11.7
640.59	1.6280E+6	4.4251	0.0367	-7.6
640.77	1.6285E+6	4.4251	0.0370	-6.2
640.91	1.6290E+6	4.4222	Inf	-9.7
641.06	1.6295E+6	4.4336	Inf	+357.0
641.22	1.6300E+6	4.4237	Inf	+353.5
641.39	1.6305E+6	4.4293	0.0355	-2.7
641.57	1.6310E+6	4.4166	0.0362	-6.7
641.76	1.6315E+6	4.4265	0.0353	-4.1
641.92	1.6320E+6	4.4265	Inf	-10.0
642.05	1.6325E+6	4.4265	Inf	+Inf
642.22	1.6330E+6	4.4265	Inf	-364.0
642.35	1.6335E+6	4.4152	Inf	+354.4
642.50	1.6340E+6	4.4251	0.0347	+0.3
642.64	1.6345E+6	4.4279	0.0360	-9.4
