#date: 15.10.2020	time: 14:04:44
#t (s)	f (Hz)	A1 (V)	A2 (V)	phase (deg)
11.42	1.0000E+1	1.5249	Inf	+Inf
11.74	5.1000E+2	2.3719	0.0259	+118.5
11.97	1.0100E+3	2.3738	Inf	+120.0
12.17	1.5100E+3	2.3890	Inf	+Inf
12.40	2.0100E+3	2.4105	0.0799	+143.2
12.65	2.5100E+3	2.4333	0.0917	+145.9
12.90	3.0100E+3	2.4596	0.1013	+150.8
13.11	3.5100E+3	2.4873	0.1094	+154.1
13.33	4.0100E+3	2.5148	0.1167	+162.4
13.56	4.5100E+3	2.5463	0.1217	+167.8
13.78	5.0100E+3	2.5749	0.1254	+170.2
14.01	5.5100E+3	2.6053	0.1295	+170.4
14.23	6.0100E+3	2.6351	0.1325	+175.1
14.45	6.5100E+3	2.6671	0.1348	+177.8
14.68	7.0100E+3	2.6979	0.1365	-175.3
14.91	7.5100E+3	2.7368	0.1387	-173.1
15.14	8.0100E+3	2.7720	0.1395	-171.2
15.36	8.5100E+3	2.8107	0.1401	-167.4
15.56	9.0100E+3	2.8508	0.1404	-166.5
15.76	9.5100E+3	2.8895	0.1412	-162.4
15.99	1.0010E+4	2.9260	0.1410	-162.9
16.19	1.0510E+4	2.9656	0.1408	-160.3
16.41	1.1010E+4	3.0014	0.1411	-156.2
16.61	1.1510E+4	3.0355	0.1405	-154.0
16.84	1.2010E+4	3.0691	0.1403	-149.3
17.04	1.2510E+4	3.0956	0.1385	-152.1
17.24	1.3010E+4	3.1301	0.1387	-153.6
17.44	1.3510E+4	3.1588	0.1374	-151.5
17.67	1.4010E+4	3.1930	0.1363	-146.1
17.89	1.4510E+4	3.2271	0.1354	-148.1
18.09	1.5010E+4	3.2585	0.1352	-136.4
18.29	1.5510E+4	3.2872	0.1344	-144.0
18.50	1.6010E+4	3.3192	0.1327	-142.4
18.72	1.6510E+4	3.3498	0.1314	-139.8
18.93	1.7010E+4	3.3759	0.1304	-139.2
19.17	1.7510E+4	3.4029	0.1284	-137.6
19.40	1.8010E+4	3.4196	0.1281	-138.8
19.60	1.8510E+4	3.4469	0.1260	-131.4
19.83	1.9010E+4	3.4679	0.1254	-131.3
20.03	1.9510E+4	3.4932	0.1238	-135.3
20.27	2.0010E+4	3.5224	0.1238	-127.6
20.48	2.0510E+4	3.5470	0.1220	-132.5
20.68	2.1010E+4	3.5760	0.1211	-135.3
20.90	2.1510E+4	3.6003	0.1197	-132.5
21.13	2.2010E+4	3.6246	0.1182	-134.2
21.36	2.2510E+4	3.6467	0.1172	-132.9
21.58	2.3010E+4	3.6666	0.1158	-129.0
21.81	2.3510E+4	3.6881	0.1148	-129.9
22.01	2.4010E+4	3.7082	0.1134	-126.7
22.23	2.4510E+4	3.7286	0.1125	-130.2
22.44	2.5010E+4	3.7474	0.1118	-126.7
22.64	2.5510E+4	3.7689	0.1105	-124.5
22.88	2.6010E+4	3.7795	0.1091	-123.3
23.11	2.6510E+4	3.7953	0.1089	-119.3
23.29	2.7010E+4	3.8130	0.1071	-123.6
23.51	2.7510E+4	3.8259	0.1073	-124.0
23.69	2.8010E+4	3.8455	0.1058	-121.3
23.92	2.8510E+4	3.8641	0.1039	-119.6
24.14	2.9010E+4	3.8788	0.1030	-123.0
24.30	2.9510E+4	3.8955	0.1021	-121.4
24.52	3.0010E+4	3.9090	0.1016	-116.3
24.93	3.0510E+4	3.9230	0.0999	-113.2
25.59	3.1010E+4	3.9360	0.0991	-124.6
25.79	3.1510E+4	3.9485	0.0980	-121.9
26.00	3.2010E+4	3.9646	0.0976	-120.5
26.17	3.2510E+4	3.9748	0.0963	-114.8
26.49	3.3010E+4	3.9932	0.0958	-118.9
26.85	3.3510E+4	4.0028	0.0957	-111.9
27.05	3.4010E+4	4.0168	0.0935	-111.6
27.25	3.4510E+4	4.0290	0.0939	-121.3
27.43	3.5010E+4	4.0384	0.0924	-123.3
27.65	3.5510E+4	4.0506	0.0910	-113.5
27.85	3.6010E+4	4.0599	0.0901	-120.9
28.05	3.6510E+4	4.0728	0.0894	-115.7
28.25	3.7010E+4	4.0834	0.0891	-114.8
28.41	3.7510E+4	4.0932	0.0876	-118.2
28.63	3.8010E+4	4.1008	0.0869	-126.7
28.83	3.8510E+4	4.1110	0.0855	-120.3
29.03	3.9010E+4	4.1212	0.0879	-112.6
29.25	3.9510E+4	4.1301	0.0850	-109.9
29.45	4.0010E+4	4.1398	0.0838	-110.8
29.64	4.0510E+4	4.1456	0.0828	-118.2
29.83	4.1010E+4	4.1552	0.0822	-106.8
30.03	4.1510E+4	4.1620	0.0809	-115.5
30.23	4.2010E+4	4.1692	0.0809	-107.6
30.39	4.2510E+4	4.1757	0.0791	-111.1
30.61	4.3010E+4	4.1866	0.0786	-118.8
30.79	4.3510E+4	4.1914	0.0779	-114.7
30.99	4.4010E+4	4.1954	0.0786	-114.4
31.19	4.4510E+4	4.2037	0.0781	-116.9
31.41	4.5010E+4	4.2100	0.0768	-106.5
31.61	4.5510E+4	4.2172	0.0774	-95.1
31.82	4.6010E+4	4.2252	0.0755	-109.6
32.02	4.6510E+4	4.2292	0.0752	-101.9
32.22	4.7010E+4	4.2354	0.0748	-97.6
32.39	4.7510E+4	4.2375	0.0747	-112.5
32.57	4.8010E+4	4.2442	0.0724	-112.4
32.77	4.8510E+4	4.2491	0.0723	-100.3
32.97	4.9010E+4	4.2527	0.0723	-102.8
33.15	4.9510E+4	4.2633	0.0713	-111.6
33.39	5.0010E+4	4.2650	0.0715	-104.4
33.59	5.0510E+4	4.2698	0.0701	-105.8
33.80	5.1010E+4	4.2784	0.0694	-100.1
34.00	5.1510E+4	4.2763	0.0688	-114.7
34.19	5.2010E+4	4.2820	0.0687	-115.9
34.37	5.2510E+4	4.2841	0.0676	-110.3
34.57	5.3010E+4	4.2944	0.0674	-106.8
34.75	5.3510E+4	4.2927	0.0663	-108.6
34.95	5.4010E+4	4.2994	0.0666	-108.6
35.13	5.4510E+4	4.3013	0.0662	-105.5
35.30	5.5010E+4	4.3068	0.0657	-114.1
35.50	5.5510E+4	4.3074	0.0652	-105.8
35.67	5.6010E+4	4.3121	0.0645	-109.4
35.85	5.6510E+4	4.3193	0.0645	-108.1
36.05	5.7010E+4	4.3203	0.0647	-109.8
36.22	5.7510E+4	4.3196	0.0650	-104.9
36.40	5.8010E+4	4.3264	0.0628	-114.4
36.60	5.8510E+4	4.3320	0.0627	-110.3
36.80	5.9010E+4	4.3330	0.0619	-106.7
36.96	5.9510E+4	4.3368	0.0627	-109.4
37.13	6.0010E+4	4.3382	0.0613	-103.0
37.33	6.0510E+4	4.3415	0.0606	-112.1
37.50	6.1010E+4	4.3453	0.0614	-112.5
37.71	6.1510E+4	4.3446	0.0613	-92.5
37.89	6.2010E+4	4.3491	0.0601	-111.8
38.09	6.2510E+4	4.3520	0.0584	-103.9
38.29	6.3010E+4	4.3542	0.0579	-108.7
38.46	6.3510E+4	4.3582	0.0581	-104.2
38.64	6.4010E+4	4.3621	0.0576	-110.2
38.84	6.4510E+4	4.3653	0.0576	-105.2
39.03	6.5010E+4	4.3684	0.0570	-108.9
39.24	6.5510E+4	4.3674	0.0572	-102.8
39.44	6.6010E+4	4.3695	0.0568	-99.1
39.62	6.6510E+4	4.3732	0.0559	-116.3
39.82	6.7010E+4	4.3692	0.0556	-105.4
40.06	6.7510E+4	4.3811	0.0580	-104.8
40.27	6.8010E+4	4.3783	0.0565	-110.7
40.49	6.8510E+4	4.3767	0.0557	-101.0
40.69	6.9010E+4	4.3831	0.0541	-100.6
40.91	6.9510E+4	4.3839	0.0543	-103.4
41.09	7.0010E+4	4.3853	0.0543	-80.6
41.27	7.0510E+4	4.3867	0.0544	-97.6
41.45	7.1010E+4	4.3911	0.0539	-114.4
41.62	7.1510E+4	4.3928	0.0531	-113.9
41.79	7.2010E+4	4.3947	0.0541	-107.4
41.95	7.2510E+4	4.3992	0.0522	-100.0
42.17	7.3010E+4	4.3935	0.0521	-106.7
42.37	7.3510E+4	4.4005	0.0533	-91.7
42.59	7.4010E+4	4.4013	0.0533	-110.4
42.77	7.4510E+4	4.3971	0.0512	-103.9
43.00	7.5010E+4	4.4039	0.0509	-96.7
43.20	7.5510E+4	4.4044	0.0518	-102.2
43.42	7.6010E+4	4.4056	0.0516	-95.0
43.62	7.6510E+4	4.4082	0.0506	-94.2
43.80	7.7010E+4	4.4040	0.0510	-102.9
43.98	7.7510E+4	4.4135	0.0504	-99.0
44.16	7.8010E+4	4.4126	0.0492	-108.4
44.36	7.8510E+4	4.4148	0.0499	-96.9
44.55	7.9010E+4	4.4186	0.0484	-92.6
44.75	7.9510E+4	4.4163	0.0500	-109.1
44.95	8.0010E+4	4.4186	0.0489	-100.4
45.13	8.0510E+4	4.4169	0.0498	-100.1
45.33	8.1010E+4	4.4191	0.0504	-94.0
45.53	8.1510E+4	4.4200	0.0480	-93.1
45.75	8.2010E+4	4.4224	0.0488	-101.2
45.96	8.2510E+4	4.4254	0.0486	-114.1
46.16	8.3010E+4	4.4292	0.0495	-114.5
46.39	8.3510E+4	4.4242	0.0463	-98.6
46.61	8.4010E+4	4.4258	0.0469	-99.0
46.79	8.4510E+4	4.4295	0.0463	-110.5
46.99	8.5010E+4	4.4275	0.0459	-104.3
47.19	8.5510E+4	4.4296	0.0452	-100.8
47.37	8.6010E+4	4.4330	0.0455	-109.3
47.56	8.6510E+4	4.4312	0.0448	-98.9
47.74	8.7010E+4	4.4341	0.0474	-92.0
47.94	8.7510E+4	4.4384	0.0445	-100.9
48.14	8.8010E+4	4.4391	0.0442	-99.1
48.33	8.8510E+4	4.4371	0.0441	-96.4
48.51	8.9010E+4	4.4423	0.0444	-90.7
48.69	8.9510E+4	4.4428	0.0438	-103.2
48.87	9.0010E+4	4.4413	0.0441	-91.4
49.05	9.0510E+4	4.4416	0.0439	-108.8
49.24	9.1010E+4	4.4416	0.0435	-94.0
49.42	9.1510E+4	4.4436	0.0432	-106.6
49.60	9.2010E+4	4.4454	0.0425	-102.3
49.87	9.2510E+4	4.4461	0.0425	-92.0
50.05	9.3010E+4	4.4488	0.0452	-94.2
50.25	9.3510E+4	4.4500	0.0422	-98.1
50.60	9.4010E+4	4.4443	0.0413	-94.8
50.80	9.4510E+4	4.4490	0.0417	-105.5
51.00	9.5010E+4	4.4534	0.0439	-108.7
51.20	9.5510E+4	4.4532	0.0413	-105.6
51.40	9.6010E+4	4.4551	0.0420	-110.3
51.63	9.6510E+4	4.4497	0.0424	-101.6
51.83	9.7010E+4	4.4555	0.0427	-108.1
52.05	9.7510E+4	4.4542	0.0414	-113.7
52.28	9.8010E+4	4.4593	0.0416	-93.0
52.50	9.8510E+4	4.4549	0.0400	-100.1
52.70	9.9010E+4	4.4543	0.0459	-108.0
52.91	9.9510E+4	4.4594	0.0422	-98.9
53.15	1.0001E+5	4.4546	0.0401	-111.6
53.36	1.0051E+5	4.4634	0.0428	-109.4
53.58	1.0101E+5	4.4633	0.0415	-102.3
53.78	1.0151E+5	4.4614	0.0392	-90.3
53.99	1.0201E+5	4.4652	0.0397	-102.3
54.18	1.0251E+5	4.4616	0.0398	-100.5
54.36	1.0301E+5	4.4672	0.0386	-92.8
54.56	1.0351E+5	4.4657	0.0402	-111.7
54.74	1.0401E+5	4.4668	0.0402	-97.6
54.91	1.0451E+5	4.4647	0.0384	-98.0
55.11	1.0501E+5	4.4682	0.0407	-101.0
55.31	1.0551E+5	4.4700	0.0381	-99.4
55.51	1.0601E+5	4.4693	0.0380	-99.2
55.69	1.0651E+5	4.4655	0.0428	-117.0
55.89	1.0701E+5	4.4705	0.0381	+269.5
56.09	1.0751E+5	4.4696	0.0392	-104.9
56.29	1.0801E+5	4.4675	0.0377	-101.4
56.51	1.0851E+5	4.4699	0.0387	-106.7
56.69	1.0901E+5	4.4730	0.0377	-94.9
56.87	1.0951E+5	4.4726	0.0379	-87.6
57.05	1.1001E+5	4.4700	0.0380	-105.9
57.24	1.1051E+5	4.4740	0.0381	-103.8
57.44	1.1101E+5	4.4771	0.0388	-100.1
57.60	1.1151E+5	4.4760	0.0403	-84.7
57.80	1.1201E+5	4.4794	0.0389	-102.9
58.02	1.1251E+5	4.4797	0.0375	-95.0
58.20	1.1301E+5	4.4767	0.0363	-103.1
58.40	1.1351E+5	4.4777	0.0413	-114.6
58.60	1.1401E+5	4.4826	0.0377	-119.8
58.82	1.1451E+5	4.4797	0.0359	-98.7
59.02	1.1501E+5	4.4831	0.0359	-100.4
59.20	1.1551E+5	4.4849	0.0375	-116.6
59.43	1.1601E+5	4.4805	0.0390	-96.3
59.66	1.1651E+5	4.4798	0.0354	-103.2
59.88	1.1701E+5	4.4831	0.0353	-103.1
60.06	1.1751E+5	4.4821	0.0351	-94.0
60.25	1.1801E+5	4.4839	0.0364	-94.7
60.48	1.1851E+5	4.4780	0.0348	-95.3
60.71	1.1901E+5	4.4890	Inf	-78.4
60.91	1.1951E+5	4.4833	0.0357	-105.9
61.11	1.2001E+5	4.4840	0.0345	-97.7
61.31	1.2051E+5	4.4823	0.0350	-100.2
61.54	1.2101E+5	4.4900	0.0344	-108.7
61.78	1.2151E+5	4.4843	0.0344	-88.6
61.96	1.2201E+5	4.4863	0.0361	-111.7
62.16	1.2251E+5	4.4884	0.0344	-96.3
62.36	1.2301E+5	4.4862	0.0340	-99.7
62.54	1.2351E+5	4.4860	0.0355	-93.7
62.74	1.2401E+5	4.4913	0.0352	-87.1
62.92	1.2451E+5	4.4891	0.0357	+278.1
63.11	1.2501E+5	4.4852	0.0357	+251.4
63.29	1.2551E+5	4.4891	Inf	-117.0
63.47	1.2601E+5	4.4900	0.0340	-96.8
63.67	1.2651E+5	4.4937	0.0352	+251.5
63.89	1.2701E+5	4.4966	0.0341	-91.9
64.11	1.2751E+5	4.4925	0.0336	-96.8
64.29	1.2801E+5	4.4962	0.0338	-85.0
64.47	1.2851E+5	4.4893	0.0344	-106.8
64.65	1.2901E+5	4.4922	0.0354	+255.3
64.85	1.2951E+5	4.4920	0.0339	+251.4
65.05	1.3001E+5	4.4938	0.0326	-94.1
65.25	1.3051E+5	4.4939	0.0336	-96.6
65.45	1.3101E+5	4.4921	0.0329	-101.9
65.65	1.3151E+5	4.4969	0.0326	-108.6
65.84	1.3201E+5	4.4932	0.0369	-82.4
66.03	1.3251E+5	4.4913	0.0320	-108.7
66.23	1.3301E+5	4.5033	0.0327	-87.9
66.42	1.3351E+5	4.5003	0.0326	-102.5
66.60	1.3401E+5	4.4979	0.0335	-120.9
66.80	1.3451E+5	4.5026	0.0321	-96.6
67.00	1.3501E+5	4.4988	Inf	+286.9
67.18	1.3551E+5	4.5006	0.0315	-112.7
67.40	1.3601E+5	4.5014	0.0313	-114.0
67.58	1.3651E+5	4.4999	0.0329	-103.3
67.78	1.3701E+5	4.5043	Inf	-434.5
67.97	1.3751E+5	4.5070	0.0315	-89.8
68.18	1.3801E+5	4.5006	Inf	-428.5
68.36	1.3851E+5	4.5012	0.0313	-112.6
68.55	1.3901E+5	4.5019	0.0309	-110.8
68.73	1.3951E+5	4.5026	0.0327	-117.8
68.93	1.4001E+5	4.4999	0.0319	-101.1
69.11	1.4051E+5	4.5051	0.0315	-115.6
69.31	1.4101E+5	4.5041	0.0329	-86.1
69.51	1.4151E+5	4.5029	0.0322	-108.6
69.69	1.4201E+5	4.5031	0.0346	-102.5
69.89	1.4251E+5	4.5044	0.0311	-101.7
70.11	1.4301E+5	4.5061	0.0308	-94.9
70.29	1.4351E+5	4.5054	0.0334	-124.4
70.49	1.4401E+5	4.5055	0.0334	-45.7
70.68	1.4451E+5	4.5078	0.0312	-100.6
70.87	1.4501E+5	4.5033	0.0312	-111.7
71.06	1.4551E+5	4.5116	0.0301	-101.2
71.27	1.4601E+5	4.5071	0.0324	-98.6
71.51	1.4651E+5	4.5030	0.0305	-108.3
71.71	1.4701E+5	4.5112	0.0298	-111.2
71.91	1.4751E+5	4.5079	0.0304	-94.4
72.11	1.4801E+5	4.5106	0.0314	-107.8
72.29	1.4851E+5	4.5122	0.0304	-98.0
72.51	1.4901E+5	4.5057	0.0323	-117.3
72.72	1.4951E+5	4.5109	0.0320	-111.6
72.90	1.5001E+5	4.5123	0.0307	-82.2
73.14	1.5051E+5	4.5128	0.0296	-107.8
73.34	1.5101E+5	4.5085	0.0316	-90.5
73.55	1.5151E+5	4.5094	0.0299	-112.6
73.75	1.5201E+5	4.5105	0.0327	-87.1
73.95	1.5251E+5	4.5125	0.0302	-104.2
74.18	1.5301E+5	4.5142	0.0307	-92.1
74.38	1.5351E+5	4.5142	0.0318	-82.3
74.57	1.5401E+5	4.5156	0.0312	-111.3
74.77	1.5451E+5	4.5128	0.0319	-102.0
74.97	1.5501E+5	4.5170	0.0296	-101.7
75.17	1.5551E+5	4.5170	0.0306	-101.0
75.36	1.5601E+5	4.5156	0.0283	-100.4
75.56	1.5651E+5	4.5113	0.0327	-83.6
75.78	1.5701E+5	4.5125	0.0324	-100.6
75.98	1.5751E+5	4.5156	0.0311	-104.5
76.18	1.5801E+5	4.5156	0.0294	-95.7
76.38	1.5851E+5	4.5142	0.0337	-126.4
76.58	1.5901E+5	4.5128	0.0289	-111.6
76.78	1.5951E+5	4.5156	0.0305	+258.7
76.98	1.6001E+5	4.5170	0.0379	-67.8
77.18	1.6051E+5	4.5184	0.0287	-109.9
77.38	1.6101E+5	4.5142	0.0297	-115.0
77.58	1.6151E+5	4.5198	0.0296	-92.7
77.76	1.6201E+5	4.5128	0.0290	+278.7
77.94	1.6251E+5	4.5156	0.0287	+266.4
78.14	1.6301E+5	4.5198	0.0308	+270.6
78.34	1.6351E+5	4.5184	0.0281	-106.0
78.54	1.6401E+5	4.5198	0.0330	-87.3
78.74	1.6451E+5	4.5212	0.0287	-103.0
78.94	1.6501E+5	4.5170	0.0290	-113.5
79.14	1.6551E+5	4.5184	0.0278	+260.2
79.34	1.6601E+5	4.5198	0.0283	-102.7
79.52	1.6651E+5	4.5170	Inf	+Inf
79.71	1.6701E+5	4.5198	0.0287	-115.4
79.89	1.6751E+5	4.5198	0.0280	+257.0
80.07	1.6801E+5	4.5170	0.0286	+244.9
80.25	1.6851E+5	4.5184	0.0279	-98.4
80.44	1.6901E+5	4.5128	0.0285	-108.2
80.62	1.6951E+5	4.5156	0.0303	-130.3
80.82	1.7001E+5	4.5170	0.0332	-112.5
81.02	1.7051E+5	4.5212	Inf	-83.3
81.20	1.7101E+5	4.5212	0.0288	+268.6
81.40	1.7151E+5	4.5212	0.0290	+241.2
81.60	1.7201E+5	4.5227	0.0296	+265.6
81.78	1.7251E+5	4.5212	0.0296	-126.5
81.97	1.7301E+5	4.5212	0.0297	+276.6
82.15	1.7351E+5	4.5241	Inf	-131.2
82.35	1.7401E+5	4.5212	Inf	+Inf
82.53	1.7451E+5	4.5227	0.0267	+253.1
82.73	1.7501E+5	4.5198	0.0283	-93.4
82.93	1.7551E+5	4.5255	0.0294	-130.5
83.13	1.7601E+5	4.5241	0.0270	-96.1
83.33	1.7651E+5	4.5227	0.0274	-105.8
83.51	1.7701E+5	4.5212	Inf	+294.7
83.70	1.7751E+5	4.5227	0.0293	+274.7
83.90	1.7801E+5	4.5227	0.0279	-106.7
84.10	1.7851E+5	4.5241	Inf	+261.6
84.28	1.7901E+5	4.5212	0.0293	+238.7
84.48	1.7951E+5	4.5212	Inf	+284.3
84.66	1.8001E+5	4.5198	0.0298	+288.9
84.85	1.8051E+5	4.5255	0.0271	-98.3
85.05	1.8101E+5	4.5283	0.0292	-90.0
85.24	1.8151E+5	4.5227	Inf	-433.4
85.43	1.8201E+5	4.5269	Inf	-94.6
85.61	1.8251E+5	4.5269	Inf	-66.4
85.79	1.8301E+5	4.5269	0.0262	+255.9
85.99	1.8351E+5	4.5241	0.0287	+233.9
86.19	1.8401E+5	4.5227	0.0295	-97.4
86.39	1.8451E+5	4.5283	Inf	-121.6
86.58	1.8501E+5	4.5255	0.0275	-111.6
86.77	1.8551E+5	4.5269	Inf	+262.1
86.96	1.8601E+5	4.5227	0.0268	-110.3
87.14	1.8651E+5	4.5255	0.0269	-102.1
87.32	1.8701E+5	4.5269	Inf	-85.4
87.51	1.8751E+5	4.5255	Inf	+254.4
87.69	1.8801E+5	4.5269	0.0270	+245.9
87.87	1.8851E+5	4.5255	Inf	-147.0
88.06	1.8901E+5	4.5255	0.0270	-100.5
88.24	1.8951E+5	4.5283	0.0277	+234.1
88.44	1.9001E+5	4.5297	0.0277	-119.5
88.62	1.9051E+5	4.5283	0.0270	-113.1
88.82	1.9101E+5	4.5311	Inf	+Inf
89.00	1.9151E+5	4.5269	Inf	+232.9
89.19	1.9201E+5	4.5283	Inf	-84.2
89.37	1.9251E+5	4.5283	0.0267	-82.5
89.55	1.9301E+5	4.5283	Inf	-143.1
89.73	1.9351E+5	4.5311	Inf	+Inf
89.92	1.9401E+5	4.5311	Inf	-97.2
90.10	1.9451E+5	4.5311	Inf	+Inf
90.28	1.9501E+5	4.5311	Inf	+299.2
90.47	1.9551E+5	4.5297	0.0270	-90.6
90.65	1.9601E+5	4.5326	0.0281	-86.0
90.85	1.9651E+5	4.5326	Inf	+Inf
91.03	1.9701E+5	4.5297	0.0272	-103.8
91.23	1.9751E+5	4.5297	0.0294	+228.1
91.43	1.9801E+5	4.5326	0.0266	-105.0
91.63	1.9851E+5	4.5283	0.0261	-129.3
91.85	1.9901E+5	4.5326	0.0260	-113.2
92.03	1.9951E+5	4.5354	0.0267	-124.9
92.23	2.0001E+5	4.5326	0.0301	-129.3
92.43	2.0051E+5	4.5311	0.0284	-103.3
92.63	2.0101E+5	4.5297	0.0260	-102.6
92.83	2.0151E+5	4.5311	Inf	+Inf
93.01	2.0201E+5	4.5311	Inf	-63.8
93.19	2.0251E+5	4.5340	0.0270	-82.3
93.39	2.0301E+5	4.5297	0.0286	+229.7
93.59	2.0351E+5	4.5326	0.0280	+244.3
93.78	2.0401E+5	4.5269	0.0271	-125.9
93.98	2.0451E+5	4.5326	0.0274	-120.5
94.16	2.0501E+5	4.5354	Inf	+Inf
94.34	2.0551E+5	4.5311	0.0283	-123.1
94.54	2.0601E+5	4.5297	0.0294	-117.0
94.74	2.0651E+5	4.5297	0.0274	-115.7
94.94	2.0701E+5	4.5326	Inf	+Inf
95.12	2.0751E+5	4.5297	Inf	+Inf
95.31	2.0801E+5	4.5297	0.0264	-111.3
95.49	2.0851E+5	4.5354	0.0288	-94.9
95.69	2.0901E+5	4.5297	0.0269	-122.4
95.89	2.0951E+5	4.5326	0.0273	-124.0
96.07	2.1001E+5	4.5297	0.0281	-123.2
96.27	2.1051E+5	4.5340	0.0258	+247.2
96.47	2.1101E+5	4.5297	Inf	+Inf
96.65	2.1151E+5	4.5368	0.0271	-133.3
96.85	2.1201E+5	4.5354	0.0277	-95.1
97.07	2.1251E+5	4.5311	0.0279	-136.2
97.25	2.1301E+5	4.5368	0.0281	-95.6
97.44	2.1351E+5	4.5340	0.0270	-107.8
97.64	2.1401E+5	4.5368	0.0303	-141.6
97.83	2.1451E+5	4.5382	0.0289	-128.2
98.03	2.1501E+5	4.5368	0.0278	-133.7
98.22	2.1551E+5	4.5439	0.0289	-152.5
98.42	2.1601E+5	4.5340	0.0295	-115.0
98.65	2.1651E+5	4.5340	0.0298	+224.9
98.83	2.1701E+5	4.5340	0.0292	-100.0
99.02	2.1751E+5	4.5354	0.0304	-78.1
99.21	2.1801E+5	4.5368	0.0301	-101.7
99.41	2.1851E+5	4.5354	0.0271	-117.3
99.61	2.1901E+5	4.5368	0.0269	-104.1
99.80	2.1951E+5	4.5368	Inf	+Inf
99.98	2.2001E+5	4.5340	0.0287	-85.5
100.18	2.2051E+5	4.5326	0.0274	-110.5
100.39	2.2101E+5	4.5368	0.0278	-128.8
100.60	2.2151E+5	4.5439	0.0282	-122.5
100.80	2.2201E+5	4.5368	0.0289	+274.5
101.00	2.2251E+5	4.5354	0.0296	-150.0
101.19	2.2301E+5	4.5326	0.0279	-139.1
101.39	2.2351E+5	4.5326	0.0280	-122.3
101.58	2.2401E+5	4.5354	0.0289	-87.2
101.76	2.2451E+5	4.5354	0.0300	-111.8
101.96	2.2501E+5	4.5354	0.0292	-127.8
102.14	2.2551E+5	4.5340	0.0298	-99.6
102.32	2.2601E+5	4.5340	0.0286	-101.1
102.53	2.2651E+5	4.5354	0.0283	-92.9
102.71	2.2701E+5	4.5382	0.0281	-92.6
102.89	2.2751E+5	4.5354	0.0273	-112.0
103.09	2.2801E+5	4.5340	0.0296	-136.3
103.31	2.2851E+5	4.5382	0.0279	-136.2
103.51	2.2901E+5	4.5340	0.0336	-89.6
103.72	2.2951E+5	4.5382	0.0315	-94.4
103.92	2.3001E+5	4.5382	0.0278	-109.5
104.12	2.3051E+5	4.5396	0.0278	-112.6
104.30	2.3101E+5	4.5410	0.0283	-127.5
104.50	2.3151E+5	4.5326	Inf	+Inf
104.70	2.3201E+5	4.5396	0.0278	-118.8
104.89	2.3251E+5	4.5396	0.0277	-111.3
105.07	2.3301E+5	4.5340	0.0281	-128.1
105.25	2.3351E+5	4.5368	0.0294	-146.4
105.45	2.3401E+5	4.5368	0.0277	-128.3
105.65	2.3451E+5	4.5425	0.0301	-109.5
105.88	2.3501E+5	4.5396	0.0283	-120.9
106.12	2.3551E+5	4.5382	Inf	-107.5
106.30	2.3601E+5	4.5368	0.0287	-118.8
106.48	2.3651E+5	4.5410	Inf	+Inf
106.70	2.3701E+5	4.5382	Inf	+Inf
106.90	2.3751E+5	4.5368	0.0290	-140.2
107.08	2.3801E+5	4.5340	Inf	-103.1
107.26	2.3851E+5	4.5368	Inf	+Inf
107.45	2.3901E+5	4.5382	0.0289	-131.5
107.63	2.3951E+5	4.5453	0.0294	-136.8
107.86	2.4001E+5	4.5354	0.0281	-129.8
108.10	2.4051E+5	4.5425	0.0291	-104.5
108.31	2.4101E+5	4.5481	0.0310	-74.5
108.51	2.4151E+5	4.5382	Inf	+Inf
108.73	2.4201E+5	4.5396	0.0287	+238.7
108.93	2.4251E+5	4.5410	0.0289	-115.0
109.13	2.4301E+5	4.5368	0.0295	-131.6
109.36	2.4351E+5	4.5453	0.0291	-128.2
109.58	2.4401E+5	4.5410	Inf	+257.1
109.76	2.4451E+5	4.5368	0.0281	-112.5
109.97	2.4501E+5	4.5382	Inf	+229.0
110.16	2.4551E+5	4.5368	Inf	-486.3
110.34	2.4601E+5	4.5425	Inf	+215.0
110.54	2.4651E+5	4.5410	Inf	-117.5
110.72	2.4701E+5	4.5368	0.0298	-117.7
110.96	2.4751E+5	4.5396	Inf	+Inf
111.14	2.4801E+5	4.5368	0.0290	-117.6
111.32	2.4851E+5	4.5382	Inf	+259.9
111.50	2.4901E+5	4.5368	0.0307	-149.2
111.70	2.4951E+5	4.5368	Inf	-484.0
111.89	2.5001E+5	4.5425	0.0295	-119.7
112.10	2.5051E+5	4.5396	Inf	+229.5
112.30	2.5101E+5	4.5382	0.0305	-133.3
112.50	2.5151E+5	4.5439	0.0303	+244.5
112.73	2.5201E+5	4.5410	Inf	-114.3
112.92	2.5251E+5	4.5439	0.0298	-141.0
113.10	2.5301E+5	4.5425	0.0297	-114.3
113.28	2.5351E+5	4.5382	0.0302	-116.0
113.48	2.5401E+5	4.5453	Inf	+230.1
113.68	2.5451E+5	4.5439	Inf	+Inf
113.87	2.5501E+5	4.5425	0.0301	-111.8
114.05	2.5551E+5	4.5439	Inf	+Inf
114.23	2.5601E+5	4.5410	Inf	+242.8
114.42	2.5651E+5	4.5410	Inf	+Inf
114.60	2.5701E+5	4.5439	0.0298	-134.4
114.78	2.5751E+5	4.5439	Inf	+235.9
114.96	2.5801E+5	4.5396	0.0307	-131.1
115.20	2.5851E+5	4.5439	Inf	+Inf
115.40	2.5901E+5	4.5425	0.0294	-128.8
115.60	2.5951E+5	4.5425	Inf	+Inf
115.78	2.6001E+5	4.5453	Inf	+238.9
115.96	2.6051E+5	4.5410	0.0315	-122.9
116.18	2.6101E+5	4.5425	0.0316	-123.7
116.36	2.6151E+5	4.5439	Inf	+Inf
116.54	2.6201E+5	4.5524	Inf	-467.9
116.73	2.6251E+5	4.5425	Inf	-124.5
116.91	2.6301E+5	4.5425	0.0316	-129.8
117.09	2.6351E+5	4.5396	0.0326	-117.8
117.33	2.6401E+5	4.5425	0.0317	-128.5
117.54	2.6451E+5	4.5396	0.0326	-125.6
117.76	2.6501E+5	4.5425	0.0321	-118.5
117.96	2.6551E+5	4.5382	0.0341	-136.9
118.17	2.6601E+5	4.5467	Inf	-126.2
118.37	2.6651E+5	4.5382	0.0308	+230.1
118.59	2.6701E+5	4.5467	Inf	-124.1
118.79	2.6751E+5	4.5368	0.0330	-132.3
119.01	2.6801E+5	4.5410	0.0313	-112.4
119.22	2.6851E+5	4.5467	Inf	+Inf
119.40	2.6901E+5	4.5425	Inf	-490.4
119.59	2.6951E+5	4.5495	Inf	-481.1
119.77	2.7001E+5	4.5410	Inf	-120.8
119.95	2.7051E+5	4.5453	Inf	-481.9
120.14	2.7101E+5	4.5467	Inf	+225.4
120.32	2.7151E+5	4.5410	Inf	+Inf
120.50	2.7201E+5	4.5481	0.0329	-120.8
120.70	2.7251E+5	4.5410	0.0394	-149.2
120.90	2.7301E+5	4.5396	Inf	-129.7
121.10	2.7351E+5	4.5467	Inf	+Inf
121.30	2.7401E+5	4.5410	Inf	+230.3
121.48	2.7451E+5	4.5396	0.0334	-123.1
121.72	2.7501E+5	4.5410	Inf	-141.2
121.92	2.7551E+5	4.5453	0.0336	-121.5
122.10	2.7601E+5	4.5382	0.0363	+239.8
122.33	2.7651E+5	4.5396	Inf	-124.4
122.52	2.7701E+5	4.5453	0.0352	-137.9
122.75	2.7751E+5	4.5425	Inf	-131.1
122.93	2.7801E+5	4.5524	0.0343	+235.6
123.13	2.7851E+5	4.5453	0.0341	-128.2
123.31	2.7901E+5	4.5467	0.0357	-135.1
123.51	2.7951E+5	4.5425	0.0377	+243.7
123.71	2.8001E+5	4.5495	Inf	-112.9
123.89	2.8051E+5	4.5425	Inf	+Inf
124.08	2.8101E+5	4.5439	0.0374	-145.2
124.28	2.8151E+5	4.5439	Inf	+Inf
124.46	2.8201E+5	4.5410	Inf	+218.8
124.64	2.8251E+5	4.5382	Inf	-115.8
124.84	2.8301E+5	4.5481	0.0374	+235.5
125.04	2.8351E+5	4.5425	Inf	+216.4
125.22	2.8401E+5	4.5396	Inf	+Inf
125.42	2.8451E+5	4.5425	0.0357	-131.1
125.66	2.8501E+5	4.5453	0.0364	-122.1
125.86	2.8551E+5	4.5453	0.0354	-127.0
126.06	2.8601E+5	4.5467	0.0388	+242.0
126.26	2.8651E+5	4.5425	Inf	+211.0
126.44	2.8701E+5	4.5481	0.0348	-134.6
126.66	2.8751E+5	4.5382	0.0373	+241.0
126.87	2.8801E+5	4.5396	0.0364	-132.8
127.06	2.8851E+5	4.5410	Inf	-124.8
127.25	2.8901E+5	4.5467	0.0373	-139.7
127.44	2.8951E+5	4.5425	0.0403	+226.3
127.64	2.9001E+5	4.5382	Inf	+204.3
127.84	2.9051E+5	4.5396	0.0425	+163.4
128.04	2.9101E+5	4.5439	0.0382	-129.1
128.27	2.9151E+5	4.5524	0.0397	+229.1
128.47	2.9201E+5	4.5396	Inf	-129.1
128.67	2.9251E+5	4.5396	0.0398	+232.4
128.87	2.9301E+5	4.5382	Inf	-147.0
129.05	2.9351E+5	4.5425	0.0382	-130.4
129.27	2.9401E+5	4.5481	0.0383	-125.2
129.45	2.9451E+5	4.5354	Inf	+221.7
129.65	2.9501E+5	4.5538	0.0393	-134.3
129.87	2.9551E+5	4.5425	0.0389	+231.8
130.07	2.9601E+5	4.5382	0.0426	-142.7
130.30	2.9651E+5	4.5439	0.0392	-139.9
130.51	2.9701E+5	4.5382	Inf	+211.5
130.71	2.9751E+5	4.5481	0.0391	-140.8
130.91	2.9801E+5	4.5509	0.0389	-135.3
131.11	2.9851E+5	4.5425	Inf	+214.7
131.30	2.9901E+5	4.5340	0.0404	-142.1
131.51	2.9951E+5	4.5453	Inf	-122.1
131.71	3.0001E+5	4.5467	0.0487	+225.7
131.91	3.0051E+5	4.5382	0.0414	-136.3
132.13	3.0101E+5	4.5467	Inf	+211.8
132.34	3.0151E+5	4.5509	0.0418	+233.1
132.54	3.0201E+5	4.5524	0.0412	-133.7
132.74	3.0251E+5	4.5467	0.0418	-147.5
132.94	3.0301E+5	4.5439	0.0469	+221.4
133.14	3.0351E+5	4.5340	0.0452	-127.3
133.36	3.0401E+5	4.5509	Inf	+207.5
133.56	3.0451E+5	4.5453	0.0426	-146.5
133.76	3.0501E+5	4.5425	0.0416	-129.7
133.96	3.0551E+5	4.5382	Inf	+219.1
134.16	3.0601E+5	4.5396	0.0431	-142.8
134.36	3.0651E+5	4.5396	Inf	-138.1
134.54	3.0701E+5	4.5481	0.0413	-146.6
134.75	3.0751E+5	4.5495	0.0493	+223.8
134.96	3.0801E+5	4.5439	0.0446	-149.1
135.16	3.0851E+5	4.5410	0.0476	+221.2
135.35	3.0901E+5	4.5453	0.0435	+232.3
135.55	3.0951E+5	4.5495	0.0427	+230.1
135.75	3.1001E+5	4.5467	0.0442	-135.4
135.95	3.1051E+5	4.5495	0.0439	-138.9
136.14	3.1101E+5	4.5425	0.0433	+231.3
136.32	3.1151E+5	4.5453	0.0442	-147.5
136.50	3.1201E+5	4.5566	0.0468	-147.4
136.70	3.1251E+5	4.5410	0.0546	+233.9
136.90	3.1301E+5	4.5552	Inf	-120.4
137.08	3.1351E+5	4.5368	0.0487	-138.4
137.32	3.1401E+5	4.5396	0.0536	+224.1
137.52	3.1451E+5	4.5410	0.0453	-139.0
137.73	3.1501E+5	4.5410	Inf	-137.7
137.91	3.1551E+5	4.5524	0.0510	+228.1
138.12	3.1601E+5	4.5439	Inf	+215.9
138.30	3.1651E+5	4.5481	0.0476	+228.8
138.50	3.1701E+5	4.5425	0.0484	-140.7
138.68	3.1751E+5	4.5396	0.0474	-139.9
138.91	3.1801E+5	4.5439	0.0449	+238.5
139.13	3.1851E+5	4.5524	0.0489	-150.2
139.33	3.1901E+5	4.5425	0.0530	-136.1
139.53	3.1951E+5	4.5396	Inf	+Inf
139.73	3.2001E+5	4.5467	Inf	+215.5
139.93	3.2051E+5	4.5495	0.0576	-139.9
140.13	3.2101E+5	4.5538	0.0498	-131.8
140.33	3.2151E+5	4.5453	0.0490	-139.3
140.51	3.2201E+5	4.5410	0.0577	+216.8
140.71	3.2251E+5	4.5425	0.0506	-141.6
140.91	3.2301E+5	4.5538	0.0530	+224.0
141.11	3.2351E+5	4.5439	0.0554	-135.6
141.31	3.2401E+5	4.5425	0.0503	-140.0
141.51	3.2451E+5	4.5425	0.0522	+228.5
141.71	3.2501E+5	4.5467	0.0517	-135.2
141.89	3.2551E+5	4.5396	0.0512	+226.8
142.11	3.2601E+5	4.5453	0.0524	-136.8
142.32	3.2651E+5	4.5481	0.0525	-139.1
142.51	3.2701E+5	4.5425	0.0504	+227.7
142.71	3.2751E+5	4.5495	0.0537	-142.9
142.91	3.2801E+5	4.5495	0.0535	-141.9
143.09	3.2851E+5	4.5509	0.0591	+218.7
143.29	3.2901E+5	4.5580	0.0568	-141.9
143.50	3.2951E+5	4.5439	Inf	+217.5
143.69	3.3001E+5	4.5453	0.0513	-147.9
143.88	3.3051E+5	4.5467	Inf	+Inf
144.07	3.3101E+5	4.5425	0.0624	+217.6
144.27	3.3151E+5	4.5495	0.0556	-131.5
144.47	3.3201E+5	4.5453	0.0651	+220.2
144.67	3.3251E+5	4.5453	0.0543	-146.8
144.87	3.3301E+5	4.5410	0.0578	-142.2
145.07	3.3351E+5	4.5495	0.0572	-134.4
145.27	3.3401E+5	4.5467	0.0654	+229.6
145.47	3.3451E+5	4.5396	Inf	+Inf
145.67	3.3501E+5	4.5467	0.0584	-147.4
145.88	3.3551E+5	4.5425	0.0540	-149.4
146.08	3.3601E+5	4.5410	0.0575	-136.3
146.28	3.3651E+5	4.5495	Inf	+212.5
146.46	3.3701E+5	4.5396	0.0633	-146.6
146.68	3.3751E+5	4.5481	0.0711	-133.3
146.91	3.3801E+5	4.5524	0.0604	-142.3
147.11	3.3851E+5	4.5495	0.0685	-148.5
147.31	3.3901E+5	4.5382	0.0654	-145.2
147.54	3.3951E+5	4.5425	0.0754	-138.4
147.76	3.4001E+5	4.5481	Inf	-152.1
147.94	3.4051E+5	4.5481	Inf	+Inf
148.13	3.4101E+5	4.5410	0.0578	-146.1
148.33	3.4151E+5	4.5509	0.0696	+225.5
148.53	3.4201E+5	4.5467	0.0614	-142.8
148.73	3.4251E+5	4.5453	0.0650	-138.0
148.93	3.4301E+5	4.5524	0.0620	-148.7
149.12	3.4351E+5	4.5552	0.0753	-142.5
149.32	3.4401E+5	4.5552	0.0617	-151.9
149.52	3.4451E+5	4.5552	0.0734	-132.7
149.72	3.4501E+5	4.5439	0.0647	-141.8
149.92	3.4551E+5	4.5524	0.0698	-138.7
150.12	3.4601E+5	4.5453	0.0671	-139.8
150.32	3.4651E+5	4.5453	0.0659	-140.9
150.51	3.4701E+5	4.5425	0.0761	-139.6
150.71	3.4751E+5	4.5425	0.0740	+222.0
150.91	3.4801E+5	4.5552	0.0689	-143.2
151.10	3.4851E+5	4.5425	0.0673	-138.6
151.30	3.4901E+5	4.5467	0.0729	-138.4
151.50	3.4951E+5	4.5425	0.0758	-140.5
151.70	3.5001E+5	4.5481	0.0788	-149.2
151.90	3.5051E+5	4.5425	0.0686	-143.3
152.10	3.5101E+5	4.5439	0.0719	-137.8
152.30	3.5151E+5	4.5495	0.0727	-148.2
152.48	3.5201E+5	4.5410	0.0741	-139.9
152.68	3.5251E+5	4.5439	0.0732	-138.9
152.87	3.5301E+5	4.5481	0.0676	-144.4
153.07	3.5351E+5	4.5495	0.0756	-143.7
153.27	3.5401E+5	4.5396	0.0726	-137.9
153.50	3.5451E+5	4.5439	0.0815	-146.2
153.72	3.5501E+5	4.5481	0.0795	-142.0
153.91	3.5551E+5	4.5396	0.0807	-139.5
154.15	3.5601E+5	4.5467	Inf	+Inf
154.35	3.5651E+5	4.5481	0.0932	-140.2
154.55	3.5701E+5	4.5467	0.0825	-143.0
154.75	3.5751E+5	4.5354	0.0953	-131.1
154.96	3.5801E+5	4.5495	0.0751	-144.4
155.19	3.5851E+5	4.5382	0.0750	-146.1
155.39	3.5901E+5	4.5453	0.0808	+223.5
155.61	3.5951E+5	4.5439	0.0814	-137.0
155.81	3.6001E+5	4.5439	0.0857	-141.9
156.01	3.6051E+5	4.5425	0.0853	-134.6
156.21	3.6101E+5	4.5396	0.0778	-141.3
156.43	3.6151E+5	4.5382	0.0817	-144.9
156.63	3.6201E+5	4.5439	0.0768	-143.5
156.84	3.6251E+5	4.5439	0.0860	-139.2
157.04	3.6301E+5	4.5410	0.0801	-144.2
157.24	3.6351E+5	4.5481	0.0950	-137.9
157.44	3.6401E+5	4.5495	0.0888	+226.6
157.64	3.6451E+5	4.5382	0.0857	-144.4
157.86	3.6501E+5	4.5410	0.0894	-142.5
158.07	3.6551E+5	4.5425	0.0857	-138.9
158.27	3.6601E+5	4.5368	0.0962	-138.8
158.49	3.6651E+5	4.5410	0.0820	-142.6
158.71	3.6701E+5	4.5340	0.0844	-147.4
158.92	3.6751E+5	4.5354	0.1007	-130.2
159.12	3.6801E+5	4.5425	0.0916	-138.2
159.34	3.6851E+5	4.5382	0.0946	-138.5
159.55	3.6901E+5	4.5354	0.0853	-143.5
159.75	3.6951E+5	4.5368	0.0946	-142.1
159.97	3.7001E+5	4.5425	0.0954	-136.1
160.17	3.7051E+5	4.5453	0.0867	-145.8
160.37	3.7101E+5	4.5368	0.0945	-140.5
160.60	3.7151E+5	4.5396	0.0959	-140.5
160.80	3.7201E+5	4.5368	0.0926	-140.8
161.00	3.7251E+5	4.5311	0.0989	+225.6
161.20	3.7301E+5	4.5368	0.0977	-140.5
161.40	3.7351E+5	4.5340	0.1057	-140.5
161.60	3.7401E+5	4.5368	0.0999	-145.5
161.80	3.7451E+5	4.5382	0.1005	-143.0
161.98	3.7501E+5	4.5382	0.1094	-136.5
162.18	3.7551E+5	4.5396	0.0981	-144.7
162.38	3.7601E+5	4.5354	0.1179	-136.1
162.58	3.7651E+5	4.5283	0.1125	-143.2
162.78	3.7701E+5	4.5297	0.1160	-141.0
162.98	3.7751E+5	4.5340	0.1038	-142.6
163.18	3.7801E+5	4.5283	0.1003	-138.7
163.38	3.7851E+5	4.5297	0.1164	-133.5
163.58	3.7901E+5	4.5326	0.1081	-141.2
163.78	3.7951E+5	4.5297	0.1031	-143.1
163.98	3.8001E+5	4.5269	0.1213	-134.5
164.18	3.8051E+5	4.5283	0.1172	-142.3
164.38	3.8101E+5	4.5269	0.1153	-144.4
164.58	3.8151E+5	4.5311	0.1055	-142.3
164.78	3.8201E+5	4.5297	0.1143	-141.0
164.97	3.8251E+5	4.5326	0.1153	-138.1
165.17	3.8301E+5	4.5368	0.1141	-143.8
165.37	3.8351E+5	4.5283	0.1250	-142.5
165.57	3.8401E+5	4.5340	0.1170	-141.4
165.77	3.8451E+5	4.5283	0.1255	-140.4
165.97	3.8501E+5	4.5255	0.1226	-137.7
166.19	3.8551E+5	4.5227	0.1286	-139.2
166.39	3.8601E+5	4.5241	0.1344	-138.3
166.59	3.8651E+5	4.5283	0.1455	-135.5
166.79	3.8701E+5	4.5227	0.1280	-137.2
166.99	3.8751E+5	4.5283	0.1349	-134.8
167.19	3.8801E+5	4.5311	0.1301	-141.4
167.39	3.8851E+5	4.5227	0.1324	-141.0
167.59	3.8901E+5	4.5227	0.1311	-141.1
167.78	3.8951E+5	4.5269	0.1394	-134.4
167.99	3.9001E+5	4.5326	0.1325	-140.2
168.18	3.9051E+5	4.5269	0.1443	-138.4
168.38	3.9101E+5	4.5241	0.1528	-137.1
168.59	3.9151E+5	4.5311	0.1385	-134.8
168.78	3.9201E+5	4.5311	0.1429	-136.9
168.98	3.9251E+5	4.5269	0.1479	-141.6
169.18	3.9301E+5	4.5283	0.1462	-139.1
169.38	3.9351E+5	4.5255	0.1501	-134.5
169.58	3.9401E+5	4.5311	0.1538	-137.2
169.78	3.9451E+5	4.5283	0.1559	-135.3
169.98	3.9501E+5	4.5255	0.1492	-138.3
170.18	3.9551E+5	4.5255	0.1637	-133.6
170.38	3.9601E+5	4.5255	0.1643	-134.3
170.56	3.9651E+5	4.5255	0.1613	-137.4
170.76	3.9701E+5	4.5241	0.1594	-134.2
170.96	3.9751E+5	4.5255	0.1599	-133.9
171.15	3.9801E+5	4.5227	0.1604	-135.9
171.33	3.9851E+5	4.5283	0.1710	-137.1
171.53	3.9901E+5	4.5255	0.1797	-133.1
171.73	3.9951E+5	4.5212	0.1716	-135.6
171.93	4.0001E+5	4.5255	0.1798	-133.4
172.13	4.0051E+5	4.5269	0.1737	-132.1
172.33	4.0101E+5	4.5311	0.1780	-133.3
172.53	4.0151E+5	4.5198	0.1837	-131.9
172.73	4.0201E+5	4.5227	0.1836	-129.6
172.91	4.0251E+5	4.5227	0.1903	-133.3
173.11	4.0301E+5	4.5297	0.1956	-128.0
173.31	4.0351E+5	4.5255	0.1976	-129.3
173.51	4.0401E+5	4.5340	0.1935	-132.7
173.71	4.0451E+5	4.5255	0.1973	-130.7
173.91	4.0501E+5	4.5255	0.1996	-130.0
174.10	4.0551E+5	4.5241	0.2025	-127.1
174.31	4.0601E+5	4.5170	0.2115	-129.2
174.50	4.0651E+5	4.5227	0.2059	-127.4
174.70	4.0701E+5	4.5297	0.2172	-129.1
174.90	4.0751E+5	4.5255	0.2131	-132.2
175.10	4.0801E+5	4.5283	0.2196	-126.9
175.30	4.0851E+5	4.5297	0.2227	-127.9
175.50	4.0901E+5	4.5297	0.2260	-124.9
175.70	4.0951E+5	4.5297	0.2354	-125.3
175.90	4.1001E+5	4.5241	0.2210	-129.1
176.10	4.1051E+5	4.5227	0.2419	-124.4
176.30	4.1101E+5	4.5255	0.2491	-123.9
176.50	4.1151E+5	4.5283	0.2443	-123.1
176.70	4.1201E+5	4.5297	0.2440	-123.8
176.88	4.1251E+5	4.5241	0.2546	-126.6
177.08	4.1301E+5	4.5283	0.2589	-121.2
177.28	4.1351E+5	4.5311	0.2531	-121.1
177.48	4.1401E+5	4.5340	0.2760	-124.1
177.68	4.1451E+5	4.5269	0.2612	-121.1
177.88	4.1501E+5	4.5269	0.2747	-120.6
178.08	4.1551E+5	4.5269	0.2780	-119.1
178.28	4.1601E+5	4.5269	0.2750	-117.9
178.48	4.1651E+5	4.5297	0.2800	-118.1
178.70	4.1701E+5	4.5283	0.2897	-118.2
178.90	4.1751E+5	4.5269	0.2854	-117.3
179.09	4.1801E+5	4.5297	0.2974	-113.9
179.29	4.1851E+5	4.5297	0.2975	-114.3
179.48	4.1901E+5	4.5297	0.3032	-111.3
179.68	4.1951E+5	4.5241	0.3080	-112.4
179.88	4.2001E+5	4.5297	0.3046	-112.8
180.08	4.2051E+5	4.5269	0.3030	-110.6
180.28	4.2101E+5	4.5297	0.3112	-110.4
180.47	4.2151E+5	4.5297	0.3175	-110.3
180.67	4.2201E+5	4.5297	0.3342	-106.4
180.87	4.2251E+5	4.5255	0.3300	-108.3
181.07	4.2301E+5	4.5283	0.3449	-104.4
181.27	4.2351E+5	4.5283	0.3444	-105.4
181.46	4.2401E+5	4.5283	0.3466	-104.7
181.66	4.2451E+5	4.5311	0.3549	-100.1
181.86	4.2501E+5	4.5227	0.3623	-100.8
182.06	4.2551E+5	4.5269	0.3629	-98.7
182.24	4.2601E+5	4.5326	0.3705	-94.3
182.44	4.2651E+5	4.5340	0.3798	-95.8
182.64	4.2701E+5	4.5326	0.3839	-93.0
182.84	4.2751E+5	4.5297	0.3712	-92.0
183.04	4.2801E+5	4.5283	0.3821	-94.0
183.24	4.2851E+5	4.5283	0.3897	-90.6
183.44	4.2901E+5	4.5297	0.3869	-93.5
183.63	4.2951E+5	4.5255	0.3951	-87.2
183.84	4.3001E+5	4.5283	0.3933	-86.6
184.03	4.3051E+5	4.5326	0.3990	-86.9
184.23	4.3101E+5	4.5297	0.4004	-82.4
184.43	4.3151E+5	4.5311	0.3998	-82.9
184.63	4.3201E+5	4.5326	0.4020	-79.8
184.83	4.3251E+5	4.5283	0.4037	-78.2
185.03	4.3301E+5	4.5340	0.4050	-78.2
185.22	4.3351E+5	4.5283	0.4036	-77.6
185.40	4.3401E+5	4.5269	0.4070	-76.3
185.60	4.3451E+5	4.5269	0.4196	-74.3
185.80	4.3501E+5	4.5326	0.4032	-71.7
186.00	4.3551E+5	4.5340	0.4200	-72.6
186.20	4.3601E+5	4.5326	0.3944	-70.3
186.40	4.3651E+5	4.5311	0.4077	-66.3
186.60	4.3701E+5	4.5354	0.4050	-64.9
186.79	4.3751E+5	4.5354	0.4029	-64.3
187.00	4.3801E+5	4.5340	0.4037	-62.6
187.19	4.3851E+5	4.5311	0.4012	-61.3
187.39	4.3901E+5	4.5326	0.3994	-60.6
187.59	4.3951E+5	4.5340	0.3925	-61.2
187.79	4.4001E+5	4.5269	0.3786	-58.1
187.99	4.4051E+5	4.5311	0.3936	-55.6
188.19	4.4101E+5	4.5326	0.3894	-56.0
188.39	4.4151E+5	4.5425	0.3830	-52.6
188.62	4.4201E+5	4.5326	0.3853	-53.1
188.84	4.4251E+5	4.5297	0.3728	-53.2
189.04	4.4301E+5	4.5368	0.3818	-51.0
189.24	4.4351E+5	4.5354	0.3753	-49.6
189.44	4.4401E+5	4.5311	0.3611	-47.6
189.64	4.4451E+5	4.5311	0.3648	-46.4
189.84	4.4501E+5	4.5354	0.3630	-45.1
190.04	4.4551E+5	4.5354	0.3516	-43.6
190.24	4.4601E+5	4.5283	0.3471	-41.4
190.44	4.4651E+5	4.5297	0.3415	-38.5
190.64	4.4701E+5	4.5326	0.3552	-42.9
190.84	4.4751E+5	4.5354	0.3385	-37.2
191.04	4.4801E+5	4.5340	0.3418	-36.0
191.24	4.4851E+5	4.5354	0.3341	-39.8
191.44	4.4901E+5	4.5326	0.3328	-40.2
191.62	4.4951E+5	4.5326	0.3192	-37.5
191.82	4.5001E+5	4.5340	0.3197	-35.8
192.00	4.5051E+5	4.5326	0.3093	-32.4
192.20	4.5101E+5	4.5283	0.2983	-33.8
192.40	4.5151E+5	4.5311	0.3112	-29.2
192.60	4.5201E+5	4.5311	0.3040	-32.1
192.80	4.5251E+5	4.5297	0.3022	-31.3
192.98	4.5301E+5	4.5326	0.3034	-31.6
193.16	4.5351E+5	4.5241	0.2807	-33.2
193.37	4.5401E+5	4.5283	0.2819	-27.0
193.56	4.5451E+5	4.5396	0.2829	-27.9
193.76	4.5501E+5	4.5311	0.2790	-30.7
193.96	4.5551E+5	4.5368	0.2667	-27.8
194.16	4.5601E+5	4.5340	0.2715	-25.9
194.36	4.5651E+5	4.5354	0.2695	-24.7
194.56	4.5701E+5	4.5326	0.2766	-26.1
194.76	4.5751E+5	4.5368	0.2650	-24.0
194.96	4.5801E+5	4.5255	0.2672	-26.2
195.16	4.5851E+5	4.5396	0.2682	-23.8
195.36	4.5901E+5	4.5396	0.2689	-26.6
195.54	4.5951E+5	4.5297	0.2501	-27.0
195.74	4.6001E+5	4.5340	0.2565	-22.4
195.94	4.6051E+5	4.5354	0.2572	-23.5
196.14	4.6101E+5	4.5368	0.2389	-24.2
196.34	4.6151E+5	4.5382	0.2377	-19.1
196.54	4.6201E+5	4.5382	0.2388	-21.7
196.74	4.6251E+5	4.5396	0.2267	-25.2
196.94	4.6301E+5	4.5396	0.2327	-18.5
197.14	4.6351E+5	4.5439	0.2286	-18.2
197.36	4.6401E+5	4.5354	0.2186	-21.2
197.57	4.6451E+5	4.5382	0.2230	-18.0
197.77	4.6501E+5	4.5354	0.2234	-23.6
197.96	4.6551E+5	4.5396	0.2354	-21.5
198.17	4.6601E+5	4.5311	0.2185	-16.3
198.37	4.6651E+5	4.5382	0.2100	-20.0
198.57	4.6701E+5	4.5368	0.2212	-18.3
198.77	4.6751E+5	4.5340	0.2159	-20.4
198.97	4.6801E+5	4.5354	0.2206	-15.2
199.17	4.6851E+5	4.5340	0.2064	-15.6
199.37	4.6901E+5	4.5368	0.2114	-18.3
199.57	4.6951E+5	4.5311	0.2016	-14.9
199.78	4.7001E+5	4.5340	0.2063	-11.4
199.98	4.7051E+5	4.5396	0.2062	-13.8
200.17	4.7101E+5	4.5340	0.1928	-15.3
200.37	4.7151E+5	4.5354	0.1961	-14.4
200.57	4.7201E+5	4.5396	0.1916	-18.8
200.76	4.7251E+5	4.5340	0.2032	-11.9
200.97	4.7301E+5	4.5396	0.1876	-15.1
201.16	4.7351E+5	4.5410	0.1889	-12.5
201.40	4.7401E+5	4.5368	0.1890	-16.6
201.60	4.7451E+5	4.5326	0.1941	-12.0
201.80	4.7501E+5	4.5410	0.1798	-13.1
202.01	4.7551E+5	4.5439	0.1856	-9.8
202.21	4.7601E+5	4.5410	0.1824	-9.7
202.41	4.7651E+5	4.5354	0.1785	-13.8
202.65	4.7701E+5	4.5340	0.1789	-11.7
202.83	4.7751E+5	4.5368	0.1654	-11.4
203.03	4.7801E+5	4.5396	0.1729	-13.4
203.23	4.7851E+5	4.5382	0.1766	-10.3
203.43	4.7901E+5	4.5425	0.1681	-11.3
203.64	4.7951E+5	4.5354	0.1692	-7.7
203.88	4.8001E+5	4.5354	0.1745	-9.1
204.07	4.8051E+5	4.5410	0.1694	-13.1
204.29	4.8101E+5	4.5326	0.1660	-14.1
204.51	4.8151E+5	4.5340	0.1641	-9.3
204.71	4.8201E+5	4.5326	0.1619	-9.7
204.91	4.8251E+5	4.5467	0.1512	-10.6
205.12	4.8301E+5	4.5340	0.1593	-14.9
205.34	4.8351E+5	4.5396	0.1586	-11.0
205.54	4.8401E+5	4.5340	0.1589	-11.8
205.72	4.8451E+5	4.5354	0.1650	-14.3
205.92	4.8501E+5	4.5410	0.1591	-10.5
206.14	4.8551E+5	4.5382	0.1606	-18.5
206.35	4.8601E+5	4.5382	0.1602	-10.8
206.55	4.8651E+5	4.5311	0.1555	-11.2
206.75	4.8701E+5	4.5340	0.1554	-9.6
206.94	4.8751E+5	4.5340	0.1509	-7.2
207.13	4.8801E+5	4.5396	0.1468	-7.0
207.33	4.8851E+5	4.5326	0.1542	-9.5
207.53	4.8901E+5	4.5396	0.1432	-8.1
207.73	4.8951E+5	4.5354	0.1417	-8.4
207.93	4.9001E+5	4.5368	0.1471	-12.9
208.13	4.9051E+5	4.5382	0.1492	-9.0
208.33	4.9101E+5	4.5382	0.1409	-6.7
208.51	4.9151E+5	4.5382	0.1471	-9.6
208.85	4.9201E+5	4.5326	0.1438	-8.3
209.55	4.9251E+5	4.5410	0.1540	-3.8
209.78	4.9301E+5	4.5410	0.1392	-5.5
209.96	4.9351E+5	4.5396	0.1368	-13.1
210.16	4.9401E+5	4.5368	0.1366	-10.3
210.33	4.9451E+5	4.5368	0.1395	-6.7
210.53	4.9501E+5	4.5439	0.1407	-8.0
210.74	4.9551E+5	4.5368	0.1388	-9.9
211.00	4.9601E+5	4.5439	0.1406	-9.1
211.28	4.9651E+5	4.5382	0.1361	-6.3
211.47	4.9701E+5	4.5340	0.1370	-6.0
211.67	4.9751E+5	4.5410	0.1310	-10.7
211.89	4.9801E+5	4.5382	0.1342	-6.9
212.11	4.9851E+5	4.5354	0.1208	-6.5
212.29	4.9901E+5	4.5326	0.1295	-7.0
212.47	4.9951E+5	4.5425	0.1308	-7.7
212.66	5.0001E+5	4.5326	0.1273	-6.3
212.87	5.0051E+5	4.5354	0.1304	-7.3
213.05	5.0101E+5	4.5410	0.1202	-1.5
213.27	5.0151E+5	4.5410	0.1292	-6.5
213.47	5.0201E+5	4.5368	0.1341	-3.7
213.69	5.0251E+5	4.5453	0.1275	-8.3
213.90	5.0301E+5	4.5410	0.1234	-4.6
214.09	5.0351E+5	4.5382	0.1201	-6.5
214.30	5.0401E+5	4.5382	0.1205	-2.2
214.47	5.0451E+5	4.5382	0.1152	-3.8
214.67	5.0501E+5	4.5396	0.1132	-4.5
214.85	5.0551E+5	4.5410	0.1241	-1.3
215.07	5.0601E+5	4.5396	0.1276	-5.3
215.30	5.0651E+5	4.5396	0.1189	-6.6
215.52	5.0701E+5	4.5326	0.1212	+0.4
215.72	5.0751E+5	4.5354	0.1230	-2.1
215.92	5.0801E+5	4.5382	0.1175	-5.2
216.12	5.0851E+5	4.5425	0.1119	-3.9
216.33	5.0901E+5	4.5410	0.1071	-4.6
216.53	5.0951E+5	4.5368	0.1069	-7.3
216.73	5.1001E+5	4.5354	0.1188	-5.3
216.93	5.1051E+5	4.5382	0.1139	-12.7
217.13	5.1101E+5	4.5326	0.1142	-3.5
217.30	5.1151E+5	4.5340	0.1147	-2.0
217.48	5.1201E+5	4.5340	0.1157	-1.4
217.68	5.1251E+5	4.5396	0.1202	-2.7
217.89	5.1301E+5	4.5368	0.1180	-3.4
218.10	5.1351E+5	4.5425	0.1154	+1.8
218.31	5.1401E+5	4.5382	0.1126	-5.5
218.53	5.1451E+5	4.5311	0.1033	-5.1
218.71	5.1501E+5	4.5396	0.1060	-4.9
218.91	5.1551E+5	4.5368	0.1116	+5.3
219.11	5.1601E+5	4.5297	0.1111	-1.3
219.28	5.1651E+5	4.5396	0.1133	-3.5
219.48	5.1701E+5	4.5354	0.1059	-0.7
219.68	5.1751E+5	4.5410	0.1037	-7.3
219.89	5.1801E+5	4.5396	0.1058	-10.9
220.12	5.1851E+5	4.5326	0.1076	+1.1
220.31	5.1901E+5	4.5382	0.1052	-7.5
220.51	5.1951E+5	4.5396	0.1153	-12.1
220.71	5.2001E+5	4.5354	0.1100	-2.5
220.91	5.2051E+5	4.5425	0.0876	-6.3
221.12	5.2101E+5	4.5410	0.0794	+344.8
221.32	5.2151E+5	4.5439	0.1020	-12.1
221.52	5.2201E+5	4.5396	0.1128	-11.7
221.74	5.2251E+5	4.5382	0.0997	-4.1
221.94	5.2301E+5	4.5396	0.1005	-7.6
222.12	5.2351E+5	4.5340	0.1049	-6.0
222.32	5.2401E+5	4.5368	0.1062	-7.6
222.52	5.2451E+5	4.5368	0.1039	-6.3
222.70	5.2501E+5	4.5410	0.1072	-5.8
222.92	5.2551E+5	4.5340	0.1048	-2.3
223.13	5.2601E+5	4.5410	0.1005	-3.7
223.35	5.2651E+5	4.5382	0.1036	-3.1
223.57	5.2701E+5	4.5311	0.1009	-4.1
223.77	5.2751E+5	4.5410	0.1040	-6.2
223.98	5.2801E+5	4.5410	0.0896	-4.4
224.18	5.2851E+5	4.5439	0.1023	-12.4
224.37	5.2901E+5	4.5382	0.0963	+0.1
224.58	5.2951E+5	4.5410	0.1023	-5.9
224.80	5.3001E+5	4.5410	0.1011	-8.7
225.00	5.3051E+5	4.5382	0.0917	-2.2
225.21	5.3101E+5	4.5410	0.1093	-9.9
225.43	5.3151E+5	4.5368	0.0916	-2.9
225.65	5.3201E+5	4.5425	0.1004	-5.1
225.86	5.3251E+5	4.5382	0.1046	-5.3
226.08	5.3301E+5	4.5326	0.0921	-4.4
226.28	5.3351E+5	4.5382	0.0866	-0.7
226.48	5.3401E+5	4.5368	0.0919	+1.5
226.68	5.3451E+5	4.5354	0.0893	-5.5
226.86	5.3501E+5	4.5396	0.0853	-2.2
227.06	5.3551E+5	4.5354	0.0915	+2.7
227.24	5.3601E+5	4.5354	0.0915	-8.5
227.43	5.3651E+5	4.5382	0.0729	+345.2
227.62	5.3701E+5	4.5396	0.0917	-2.8
227.82	5.3751E+5	4.5410	0.0852	-1.7
228.04	5.3801E+5	4.5368	0.0883	-1.0
228.26	5.3851E+5	4.5382	0.0871	-4.1
228.44	5.3901E+5	4.5410	0.0838	-4.4
228.68	5.3951E+5	4.5410	0.0873	-4.9
228.91	5.4001E+5	4.5410	0.0992	-9.7
229.10	5.4051E+5	4.5340	0.0852	-3.0
229.32	5.4101E+5	4.5354	0.0859	-2.4
229.50	5.4151E+5	4.5340	0.0967	-0.1
229.70	5.4201E+5	4.5439	0.0961	-7.7
229.90	5.4251E+5	4.5382	0.0877	-5.1
230.12	5.4301E+5	4.5354	0.0822	-1.8
230.32	5.4351E+5	4.5410	0.0895	-8.0
230.53	5.4401E+5	4.5368	0.0968	+5.1
230.75	5.4451E+5	4.5368	0.0836	-3.5
230.95	5.4501E+5	4.5396	0.0865	-2.4
231.36	5.4551E+5	4.5439	0.0921	+0.7
231.63	5.4601E+5	4.5410	0.0897	-5.2
231.83	5.4651E+5	4.5340	0.0827	-2.8
232.05	5.4701E+5	4.5368	0.0871	-0.3
232.25	5.4751E+5	4.5410	0.0903	-11.1
232.46	5.4801E+5	4.5354	0.0891	-6.5
232.68	5.4851E+5	4.5326	0.0906	-4.5
232.88	5.4901E+5	4.5354	0.0967	-4.5
233.08	5.4951E+5	4.5255	0.0853	-6.0
233.28	5.5001E+5	4.5368	0.0811	-1.8
233.48	5.5051E+5	4.5382	0.0838	-6.5
233.68	5.5101E+5	4.5368	0.0817	-7.9
233.88	5.5151E+5	4.5410	0.0863	-3.4
234.09	5.5201E+5	4.5368	0.0819	-5.8
234.31	5.5251E+5	4.5382	0.0796	-9.3
234.51	5.5301E+5	4.5453	0.0854	-1.7
234.73	5.5351E+5	4.5368	0.0829	+0.4
234.94	5.5401E+5	4.5368	0.0851	-3.8
235.15	5.5451E+5	4.5326	0.0839	+0.7
235.39	5.5501E+5	4.5425	0.0793	-4.5
235.61	5.5551E+5	4.5396	0.0870	-4.8
235.96	5.5601E+5	4.5340	0.0840	+2.4
236.14	5.5651E+5	4.5382	0.0748	-4.1
236.34	5.5701E+5	4.5368	0.0875	-6.5
236.54	5.5751E+5	4.5340	0.0894	-0.8
236.74	5.5801E+5	4.5425	0.0847	-7.3
236.96	5.5851E+5	4.5368	0.0829	-6.5
237.17	5.5901E+5	4.5354	0.0862	+5.9
237.37	5.5951E+5	4.5382	0.0793	-4.9
237.57	5.6001E+5	4.5340	0.0760	+0.7
237.77	5.6051E+5	4.5410	0.0750	-2.8
237.99	5.6101E+5	4.5340	0.0761	-1.7
238.19	5.6151E+5	4.5354	0.0819	+2.4
238.38	5.6201E+5	4.5326	0.0951	-6.6
238.59	5.6251E+5	4.5382	0.0794	+0.1
238.78	5.6301E+5	4.5396	0.0764	+5.4
238.98	5.6351E+5	4.5382	0.0808	-1.3
239.18	5.6401E+5	4.5311	0.0691	-2.1
239.38	5.6451E+5	4.5326	0.0792	-4.2
239.58	5.6501E+5	4.5368	0.0767	-6.5
239.78	5.6551E+5	4.5340	0.0777	+1.0
239.98	5.6601E+5	4.5354	0.0774	-8.4
240.15	5.6651E+5	4.5354	0.0819	+0.8
240.35	5.6701E+5	4.5396	0.0703	-1.3
240.55	5.6751E+5	4.5396	0.0775	-7.3
240.75	5.6801E+5	4.5396	0.0798	-0.4
240.95	5.6851E+5	4.5354	0.0788	-1.7
241.13	5.6901E+5	4.5354	0.0875	+6.6
241.31	5.6951E+5	4.5396	0.0886	+4.9
241.51	5.7001E+5	4.5368	0.0711	-2.1
241.71	5.7051E+5	4.5297	0.0833	-1.7
241.91	5.7101E+5	4.5396	0.0759	-4.4
242.11	5.7151E+5	4.5368	0.0803	+4.8
242.31	5.7201E+5	4.5368	0.0812	+8.3
242.49	5.7251E+5	4.5297	0.0765	-5.2
242.69	5.7301E+5	4.5354	0.0825	-4.7
242.89	5.7351E+5	4.5311	Inf	-358.7
243.08	5.7401E+5	4.5368	0.0769	-7.2
243.28	5.7451E+5	4.5340	0.0780	+6.2
243.47	5.7501E+5	4.5368	0.0717	+2.4
243.66	5.7551E+5	4.5368	0.0717	-5.5
243.84	5.7601E+5	4.5410	0.0783	-4.6
244.06	5.7651E+5	4.5382	0.0766	-7.4
244.27	5.7701E+5	4.5354	0.0720	+0.1
244.47	5.7751E+5	4.5326	0.0743	-4.4
244.67	5.7801E+5	4.5368	0.0850	+3.2
244.87	5.7851E+5	4.5340	0.0734	-0.1
245.07	5.7901E+5	4.5368	0.0861	-12.0
245.27	5.7951E+5	4.5297	0.0760	-3.2
245.47	5.8001E+5	4.5396	0.0744	-6.8
245.65	5.8051E+5	4.5354	0.0731	+3.2
245.85	5.8101E+5	4.5382	0.0733	+2.5
246.04	5.8151E+5	4.5368	0.0777	-11.1
246.24	5.8201E+5	4.5410	Inf	-358.0
246.44	5.8251E+5	4.5368	0.0688	-351.7
246.67	5.8301E+5	4.5354	0.0662	+352.1
246.87	5.8351E+5	4.5354	0.0730	-3.5
247.07	5.8401E+5	4.5382	0.0712	-4.2
247.25	5.8451E+5	4.5326	0.0766	+0.6
247.45	5.8501E+5	4.5354	0.0687	-2.5
247.65	5.8551E+5	4.5382	0.0660	-0.8
247.85	5.8601E+5	4.5410	0.0767	-9.1
248.06	5.8651E+5	4.5326	0.0821	+9.0
248.28	5.8701E+5	4.5396	Inf	-354.5
248.46	5.8751E+5	4.5382	0.0739	-1.7
248.66	5.8801E+5	4.5396	0.0708	+2.7
248.85	5.8851E+5	4.5297	0.0757	-1.8
249.05	5.8901E+5	4.5396	0.0809	-2.7
249.25	5.8951E+5	4.5326	0.0821	-4.8
249.44	5.9001E+5	4.5368	0.0665	-0.1
249.65	5.9051E+5	4.5311	0.0719	-0.3
249.84	5.9101E+5	4.5255	0.0680	+1.1
250.04	5.9151E+5	4.5326	0.0718	+1.0
250.24	5.9201E+5	4.5326	0.0702	-4.1
250.43	5.9251E+5	4.5354	0.0708	+4.8
250.61	5.9301E+5	4.5340	0.0747	-3.4
250.81	5.9351E+5	4.5368	0.0739	-4.8
251.01	5.9401E+5	4.5340	0.0710	-5.9
251.21	5.9451E+5	4.5311	0.0735	-6.0
251.41	5.9501E+5	4.5382	0.0724	-0.7
251.59	5.9551E+5	4.5326	0.0757	-0.8
251.79	5.9601E+5	4.5326	Inf	+354.1
251.97	5.9651E+5	4.5311	0.0832	+1.8
252.17	5.9701E+5	4.5311	0.0768	+1.5
252.37	5.9751E+5	4.5382	Inf	+355.6
252.56	5.9801E+5	4.5340	0.0715	-5.6
252.75	5.9851E+5	4.5283	0.0624	+349.2
252.94	5.9901E+5	4.5269	0.0683	+1.8
253.14	5.9951E+5	4.5354	0.0684	-3.7
253.32	6.0001E+5	4.5297	0.0672	-4.5
253.52	6.0051E+5	4.5311	0.0675	-1.3
253.72	6.0101E+5	4.5311	0.0659	-2.3
253.92	6.0151E+5	4.5368	0.0696	-5.1
254.10	6.0201E+5	4.5368	Inf	+353.0
254.28	6.0251E+5	4.5297	0.0621	+1.0
254.48	6.0301E+5	4.5368	0.0698	-2.5
254.68	6.0351E+5	4.5283	0.0695	+0.7
254.87	6.0401E+5	4.5396	0.0670	-6.3
255.05	6.0451E+5	4.5368	0.0656	-3.2
255.25	6.0501E+5	4.5311	0.0664	+1.7
255.45	6.0551E+5	4.5340	0.0652	+1.0
255.65	6.0601E+5	4.5368	0.0665	+3.4
255.85	6.0651E+5	4.5354	0.0607	-349.2
256.05	6.0701E+5	4.5368	0.0704	-10.1
256.23	6.0751E+5	4.5283	0.0648	+0.4
256.43	6.0801E+5	4.5382	0.0745	+6.5
256.63	6.0851E+5	4.5269	0.0663	+6.1
256.83	6.0901E+5	4.5354	0.0667	-5.3
257.01	6.0951E+5	4.5340	0.0622	-5.6
257.19	6.1001E+5	4.5354	0.0597	+349.7
257.39	6.1051E+5	4.5382	0.0688	+0.1
257.59	6.1101E+5	4.5326	0.0618	-353.0
257.79	6.1151E+5	4.5311	0.0673	+0.8
257.99	6.1201E+5	4.5340	0.0625	-5.6
258.18	6.1251E+5	4.5311	0.0673	-5.6
258.38	6.1301E+5	4.5382	0.0650	-7.5
258.58	6.1351E+5	4.5340	0.0739	-9.5
258.78	6.1401E+5	4.5311	Inf	-355.6
258.96	6.1451E+5	4.5326	0.0674	-0.4
259.14	6.1501E+5	4.5269	0.0659	+5.6
259.34	6.1551E+5	4.5297	0.0680	-1.1
259.54	6.1601E+5	4.5311	0.0622	-5.6
259.74	6.1651E+5	4.5311	0.0611	+3.1
259.94	6.1701E+5	4.5340	0.0724	-4.1
260.12	6.1751E+5	4.5368	Inf	-354.4
260.31	6.1801E+5	4.5311	0.0649	-4.2
260.50	6.1851E+5	4.5283	0.0627	-1.4
260.70	6.1901E+5	4.5340	0.0621	-5.5
260.87	6.1951E+5	4.5354	0.0620	+353.5
261.05	6.2001E+5	4.5269	0.0595	+0.4
261.25	6.2051E+5	4.5326	Inf	-358.9
261.44	6.2101E+5	4.5269	0.0622	-6.8
261.64	6.2151E+5	4.5326	0.0653	+5.2
261.82	6.2201E+5	4.5340	0.0606	-3.2
262.02	6.2251E+5	4.5255	0.0607	-5.8
262.20	6.2301E+5	4.5354	0.0721	+1.4
262.40	6.2351E+5	4.5297	0.0599	-0.4
262.58	6.2401E+5	4.5297	0.0620	+7.5
262.78	6.2451E+5	4.5269	0.0697	+7.8
262.98	6.2501E+5	4.5311	Inf	-360.8
263.17	6.2551E+5	4.5241	Inf	-348.9
263.35	6.2601E+5	4.5311	0.0712	-6.2
263.53	6.2651E+5	4.5340	0.0627	+3.8
263.73	6.2701E+5	4.5311	Inf	-363.5
263.92	6.2751E+5	4.5241	0.0653	-4.2
264.11	6.2801E+5	4.5283	0.0626	-2.7
264.30	6.2851E+5	4.5255	0.0614	-4.2
264.50	6.2901E+5	4.5297	0.0704	+6.5
264.70	6.2951E+5	4.5269	0.0594	+345.9
264.90	6.3001E+5	4.5241	0.0741	-1.0
265.08	6.3051E+5	4.5326	0.0650	+1.0
265.28	6.3101E+5	4.5311	0.0637	-3.1
265.48	6.3151E+5	4.5269	0.0638	-1.5
265.66	6.3201E+5	4.5368	0.0580	+345.7
265.84	6.3251E+5	4.5326	Inf	+365.5
266.03	6.3301E+5	4.5283	0.0586	+2.7
266.21	6.3351E+5	4.5227	0.0615	-0.4
266.41	6.3401E+5	4.5283	0.0560	+351.4
266.59	6.3451E+5	4.5326	Inf	-357.9
266.77	6.3501E+5	4.5311	0.0606	-4.6
266.97	6.3551E+5	4.5340	0.0665	-5.1
267.17	6.3601E+5	4.5198	0.0605	-3.1
267.36	6.3651E+5	4.5326	0.0640	-4.5
267.56	6.3701E+5	4.5297	0.0629	+3.1
267.74	6.3751E+5	4.5255	0.0577	-0.3
267.94	6.3801E+5	4.5283	0.0606	+4.4
268.12	6.3851E+5	4.5311	0.0550	-348.3
268.32	6.3901E+5	4.5198	0.0578	+1.4
268.52	6.3951E+5	4.5269	0.0611	-3.9
268.72	6.4001E+5	4.5241	0.0561	-3.6
268.90	6.4051E+5	4.5269	0.0683	+2.1
269.10	6.4101E+5	4.5269	0.0595	-6.2
269.30	6.4151E+5	4.5311	0.0579	+7.9
269.49	6.4201E+5	4.5269	0.0595	-6.3
269.69	6.4251E+5	4.5311	0.0604	+4.5
269.89	6.4301E+5	4.5311	0.0572	+346.9
270.08	6.4351E+5	4.5227	Inf	-361.4
270.25	6.4401E+5	4.5269	0.0556	+347.5
270.45	6.4451E+5	4.5269	0.0667	-16.9
270.65	6.4501E+5	4.5297	0.0555	-3.9
270.85	6.4551E+5	4.5283	0.0599	-4.5
271.03	6.4601E+5	4.5326	0.0589	-6.5
271.21	6.4651E+5	4.5297	0.0647	-3.5
271.42	6.4701E+5	4.5311	0.0686	-12.1
271.60	6.4751E+5	4.5212	Inf	-2.4
271.78	6.4801E+5	4.5255	Inf	-357.5
271.96	6.4851E+5	4.5283	0.0683	+5.8
272.16	6.4901E+5	4.5255	0.0606	-3.7
272.35	6.4951E+5	4.5297	0.0572	+354.9
272.55	6.5001E+5	4.5269	0.0570	-5.2
272.73	6.5051E+5	4.5269	0.0553	-3.5
272.91	6.5101E+5	4.5269	0.0549	+353.7
273.10	6.5151E+5	4.5269	0.0655	-1.1
273.30	6.5201E+5	4.5283	0.0595	-8.3
273.48	6.5251E+5	4.5241	0.0705	-8.8
273.68	6.5301E+5	4.5227	0.0584	-5.9
273.88	6.5351E+5	4.5255	0.0566	+1.4
274.08	6.5401E+5	4.5283	0.0586	+3.1
274.26	6.5451E+5	4.5241	0.0560	-4.5
274.46	6.5501E+5	4.5311	0.0558	+2.9
274.66	6.5551E+5	4.5340	0.0592	+4.5
274.84	6.5601E+5	4.5184	0.0589	-1.7
275.02	6.5651E+5	4.5241	Inf	-355.1
275.21	6.5701E+5	4.5283	0.0560	-0.4
275.39	6.5751E+5	4.5241	Inf	-1.8
275.57	6.5801E+5	4.5283	0.0552	-3.9
275.79	6.5851E+5	4.5269	0.0665	-8.4
275.99	6.5901E+5	4.5227	0.0588	-9.1
276.17	6.5951E+5	4.5283	0.0582	-5.2
276.37	6.6001E+5	4.5297	0.0589	+4.1
276.57	6.6051E+5	4.5184	Inf	-7.6
276.74	6.6101E+5	4.5227	0.0565	+2.5
276.94	6.6151E+5	4.5227	0.0581	-2.4
277.14	6.6201E+5	4.5269	0.0572	-6.9
277.32	6.6251E+5	4.5255	0.0630	-11.0
277.52	6.6301E+5	4.5269	0.0568	+1.4
277.72	6.6351E+5	4.5283	0.0559	-3.9
277.89	6.6401E+5	4.5311	Inf	-7.6
278.07	6.6451E+5	4.5255	0.0601	-8.0
278.27	6.6501E+5	4.5227	0.0564	+6.1
278.45	6.6551E+5	4.5283	0.0562	+353.8
278.63	6.6601E+5	4.5269	Inf	-354.9
278.82	6.6651E+5	4.5255	0.0545	+1.3
279.00	6.6701E+5	4.5241	0.0525	+346.1
279.20	6.6751E+5	4.5283	0.0577	-9.1
279.40	6.6801E+5	4.5311	0.0664	-3.1
279.58	6.6851E+5	4.5297	0.0565	-10.7
279.78	6.6901E+5	4.5241	Inf	-354.7
279.96	6.6951E+5	4.5297	0.0631	+0.4
280.15	6.7001E+5	4.5326	0.0552	+4.2
280.35	6.7051E+5	4.5227	0.0551	-2.9
280.53	6.7101E+5	4.5269	0.0557	+358.9
280.69	6.7151E+5	4.5255	0.0623	-1.1
280.89	6.7201E+5	4.5283	0.0529	+349.6
281.09	6.7251E+5	4.5227	0.0565	-2.8
281.26	6.7301E+5	4.5241	0.0557	+3.7
281.44	6.7351E+5	4.5297	Inf	-12.5
281.63	6.7401E+5	4.5184	Inf	+3.9
281.79	6.7451E+5	4.5255	0.0567	-356.2
281.99	6.7501E+5	4.5283	0.0560	-1.3
282.18	6.7551E+5	4.5170	0.0523	+351.4
282.36	6.7601E+5	4.5311	0.0560	-10.8
282.56	6.7651E+5	4.5255	0.0614	-3.2
282.76	6.7701E+5	4.5241	0.0539	+11.0
282.94	6.7751E+5	4.5311	0.0546	-3.8
283.14	6.7801E+5	4.5269	0.0647	-2.9
283.34	6.7851E+5	4.5184	Inf	-364.5
283.51	6.7901E+5	4.5283	0.0514	-349.0
283.70	6.7951E+5	4.5255	0.0558	-2.2
283.90	6.8001E+5	4.5212	0.0531	-3.5
284.09	6.8051E+5	4.5241	0.0554	-0.3
284.29	6.8101E+5	4.5227	0.0567	-4.8
284.49	6.8151E+5	4.5227	0.0541	-5.1
284.67	6.8201E+5	4.5269	0.0544	-6.6
284.85	6.8251E+5	4.5198	0.0525	-6.2
285.05	6.8301E+5	4.5198	0.0519	+352.8
285.22	6.8351E+5	4.5241	Inf	+366.9
285.40	6.8401E+5	4.5241	Inf	-362.4
285.57	6.8451E+5	4.5269	0.0606	-9.4
285.77	6.8501E+5	4.5297	0.0529	+0.4
285.97	6.8551E+5	4.5212	0.0553	+2.3
286.15	6.8601E+5	4.5269	0.0531	-5.3
286.35	6.8651E+5	4.5227	Inf	+366.5
286.53	6.8701E+5	4.5198	0.0525	-353.4
286.72	6.8751E+5	4.5269	0.0535	+6.5
286.92	6.8801E+5	4.5227	Inf	+361.1
287.10	6.8851E+5	4.5241	0.0564	+1.8
287.28	6.8901E+5	4.5241	0.0532	-10.4
287.48	6.8951E+5	4.5283	0.0620	-14.0
287.66	6.9001E+5	4.5241	0.0599	+4.9
287.86	6.9051E+5	4.5227	0.0518	+345.8
288.06	6.9101E+5	4.5269	0.0507	+345.0
288.25	6.9151E+5	4.5184	0.0535	-0.8
288.45	6.9201E+5	4.5212	0.0535	+355.6
288.63	6.9251E+5	4.5212	Inf	+4.9
288.80	6.9301E+5	4.5283	0.0520	-5.1
289.00	6.9351E+5	4.5241	0.0539	+5.2
289.18	6.9401E+5	4.5297	0.0534	+6.3
289.36	6.9451E+5	4.5255	0.0532	+2.8
289.54	6.9501E+5	4.5255	0.0523	+355.6
289.73	6.9551E+5	4.5227	0.0525	+1.3
289.91	6.9601E+5	4.5227	0.0515	-4.1
290.11	6.9651E+5	4.5255	Inf	-3.0
290.27	6.9701E+5	4.5255	0.0516	+1.0
290.46	6.9751E+5	4.5198	Inf	-363.8
290.62	6.9801E+5	4.5170	0.0515	-0.6
290.81	6.9851E+5	4.5326	0.0542	-6.2
291.01	6.9901E+5	4.5269	Inf	+2.2
291.17	6.9951E+5	4.5255	Inf	-0.1
291.36	7.0001E+5	4.5198	Inf	+361.5
291.52	7.0051E+5	4.5241	0.0512	+353.0
291.72	7.0101E+5	4.5283	0.0524	-6.6
291.92	7.0151E+5	4.5269	0.0603	-2.5
292.11	7.0201E+5	4.5255	0.0510	-1.5
292.30	7.0251E+5	4.5227	0.0520	-6.2
292.50	7.0301E+5	4.5227	Inf	-360.3
292.67	7.0351E+5	4.5212	Inf	+4.1
292.85	7.0401E+5	4.5212	Inf	-12.8
293.02	7.0451E+5	4.5283	0.0568	-8.6
293.22	7.0501E+5	4.5198	0.0576	-9.1
293.42	7.0551E+5	4.5241	0.0536	-0.6
293.60	7.0601E+5	4.5297	0.0610	+1.3
293.80	7.0651E+5	4.5198	Inf	+359.3
293.97	7.0701E+5	4.5269	0.0510	-2.4
294.17	7.0751E+5	4.5283	0.0498	+344.5
294.37	7.0801E+5	4.5227	Inf	+357.0
294.53	7.0851E+5	4.5283	0.0533	-4.6
294.73	7.0901E+5	4.5297	0.0520	+5.3
294.92	7.0951E+5	4.5311	0.0511	-3.1
295.12	7.1001E+5	4.5269	0.0517	-1.8
295.31	7.1051E+5	4.5241	0.0579	-2.5
295.50	7.1101E+5	4.5198	0.0511	+351.5
295.70	7.1151E+5	4.5212	0.0600	-15.0
295.88	7.1201E+5	4.5198	0.0510	-1.4
296.08	7.1251E+5	4.5255	0.0527	+351.3
296.26	7.1301E+5	4.5255	0.0485	+353.7
296.46	7.1351E+5	4.5269	Inf	-4.1
296.64	7.1401E+5	4.5227	0.0516	+353.8
296.83	7.1451E+5	4.5212	0.0583	-13.3
297.03	7.1501E+5	4.5297	0.0499	-3.4
297.21	7.1551E+5	4.5241	Inf	+370.3
297.39	7.1601E+5	4.5269	Inf	+10.7
297.58	7.1651E+5	4.5241	0.0525	-10.7
297.76	7.1701E+5	4.5311	0.0511	+0.8
297.96	7.1751E+5	4.5255	0.0507	-1.7
298.11	7.1801E+5	4.5212	Inf	-370.7
298.29	7.1851E+5	4.5212	Inf	+365.2
298.47	7.1901E+5	4.5198	Inf	-7.4
298.64	7.1951E+5	4.5241	0.0503	-3.7
298.82	7.2001E+5	4.5241	Inf	+2.5
298.99	7.2051E+5	4.5255	0.0514	+345.5
299.17	7.2101E+5	4.5198	Inf	-5.6
299.34	7.2151E+5	4.5255	0.0572	+7.6
299.54	7.2201E+5	4.5241	0.0507	-356.9
299.74	7.2251E+5	4.5227	Inf	+2.5
299.91	7.2301E+5	4.5283	0.0589	-4.4
300.11	7.2351E+5	4.5269	0.0503	+352.8
300.29	7.2401E+5	4.5283	0.0505	+3.5
300.47	7.2451E+5	4.5170	Inf	-11.8
300.64	7.2501E+5	4.5269	0.0499	+355.5
300.83	7.2551E+5	4.5184	Inf	-1.1
301.02	7.2601E+5	4.5297	0.0501	+349.6
301.19	7.2651E+5	4.5170	0.0513	-5.8
301.38	7.2701E+5	4.5227	Inf	+371.1
301.55	7.2751E+5	4.5212	0.0498	-354.0
301.75	7.2801E+5	4.5255	0.0499	-3.2
301.92	7.2851E+5	4.5326	0.0494	-7.2
302.10	7.2901E+5	4.5212	Inf	-3.6
302.28	7.2951E+5	4.5184	0.0500	-3.9
302.45	7.3001E+5	4.5128	0.0488	-3.8
302.65	7.3051E+5	4.5212	0.0504	-5.8
302.83	7.3101E+5	4.5184	0.0491	+6.2
303.03	7.3151E+5	4.5198	0.0512	+346.7
303.21	7.3201E+5	4.5212	Inf	+9.4
303.40	7.3251E+5	4.5170	Inf	-7.1
303.56	7.3301E+5	4.5283	0.0482	+352.5
303.76	7.3351E+5	4.5255	0.0482	+350.6
303.94	7.3401E+5	4.5241	0.0493	-7.1
304.13	7.3451E+5	4.5227	0.0580	-18.0
304.33	7.3501E+5	4.5198	0.0554	+7.8
304.51	7.3551E+5	4.5241	0.0479	+348.6
304.71	7.3601E+5	4.5297	0.0497	-350.5
304.89	7.3651E+5	4.5269	0.0487	-0.8
305.10	7.3701E+5	4.5198	0.0495	+4.2
305.28	7.3751E+5	4.5297	0.0488	-355.4
305.46	7.3801E+5	4.5269	0.0504	-0.9
305.66	7.3851E+5	4.5184	Inf	+360.1
305.83	7.3901E+5	4.5198	0.0486	+346.5
306.02	7.3951E+5	4.5227	0.0497	-2.0
306.21	7.4001E+5	4.5269	0.0477	+352.0
306.41	7.4051E+5	4.5156	0.0496	+0.5
306.59	7.4101E+5	4.5198	0.0489	-1.6
306.77	7.4151E+5	4.5212	Inf	-0.5
306.94	7.4201E+5	4.5227	0.0494	-8.0
307.12	7.4251E+5	4.5255	0.0489	+1.2
307.29	7.4301E+5	4.5212	0.0494	-0.4
307.47	7.4351E+5	4.5198	Inf	+8.2
307.65	7.4401E+5	4.5212	Inf	-4.0
307.82	7.4451E+5	4.5227	Inf	-360.7
308.00	7.4501E+5	4.5283	0.0490	-1.7
308.17	7.4551E+5	4.5227	0.0559	-19.1
308.37	7.4601E+5	4.5227	0.0501	-2.6
308.55	7.4651E+5	4.5255	0.0481	-353.3
308.75	7.4701E+5	4.5212	0.0476	-351.0
308.92	7.4751E+5	4.5269	0.0469	+353.6
309.12	7.4801E+5	4.5227	0.0555	-9.8
309.29	7.4851E+5	4.5326	0.0467	-346.1
309.49	7.4901E+5	4.5241	0.0494	-5.1
309.67	7.4951E+5	4.5184	0.0492	+352.7
309.85	7.5001E+5	4.5142	0.0490	+348.1
310.03	7.5051E+5	4.5198	0.0577	-21.3
310.22	7.5101E+5	4.5142	0.0483	-6.6
310.42	7.5151E+5	4.5227	0.0483	-3.8
310.58	7.5201E+5	4.5212	Inf	-12.3
310.76	7.5251E+5	4.5212	0.0473	-354.9
310.95	7.5301E+5	4.5255	Inf	+Inf
311.13	7.5351E+5	4.5283	0.0477	-6.3
311.31	7.5401E+5	4.5255	0.0571	-19.8
311.51	7.5451E+5	4.5212	0.0461	+353.4
311.70	7.5501E+5	4.5241	0.0494	-7.6
311.90	7.5551E+5	4.5170	Inf	-4.4
312.06	7.5601E+5	4.5170	0.0547	-0.8
312.26	7.5651E+5	4.5212	Inf	+4.3
312.43	7.5701E+5	4.5269	0.0477	+3.3
312.63	7.5751E+5	4.5241	0.0519	-6.4
312.81	7.5801E+5	4.5255	0.0489	+350.7
313.01	7.5851E+5	4.5227	0.0494	-4.4
313.18	7.5901E+5	4.5241	0.0493	+4.0
313.36	7.5951E+5	4.5156	0.0522	-7.4
313.56	7.6001E+5	4.5198	0.0486	+2.9
313.74	7.6051E+5	4.5170	0.0539	-2.7
313.94	7.6101E+5	4.5184	Inf	-1.8
314.11	7.6151E+5	4.5269	0.0487	-10.4
314.31	7.6201E+5	4.5255	0.0545	-2.1
314.49	7.6251E+5	4.5255	0.0530	+4.7
314.69	7.6301E+5	4.5212	0.0492	-6.7
314.87	7.6351E+5	4.5227	0.0501	-3.4
315.06	7.6401E+5	4.5227	Inf	+368.5
315.22	7.6451E+5	4.5156	0.0490	-1.2
315.40	7.6501E+5	4.5212	0.0478	-353.9
315.59	7.6551E+5	4.5142	0.0478	-6.1
315.77	7.6601E+5	4.5241	0.0464	+350.9
315.95	7.6651E+5	4.5198	Inf	-2.1
316.14	7.6701E+5	4.5198	0.0475	+3.2
316.32	7.6751E+5	4.5269	Inf	+8.1
316.50	7.6801E+5	4.5184	0.0466	+353.1
316.69	7.6851E+5	4.5212	0.0465	+2.5
316.87	7.6901E+5	4.5128	0.0468	-3.9
317.04	7.6951E+5	4.5212	0.0468	+348.5
317.22	7.7001E+5	4.5170	Inf	-2.1
317.38	7.7051E+5	4.5198	0.0468	+345.9
317.57	7.7101E+5	4.5156	0.0471	+352.1
317.73	7.7151E+5	4.5156	0.0477	-11.0
317.93	7.7201E+5	4.5227	Inf	-8.9
318.10	7.7251E+5	4.5184	0.0467	+0.6
318.30	7.7301E+5	4.5142	0.0478	+3.1
318.48	7.7351E+5	4.5269	0.0479	+356.4
318.67	7.7401E+5	4.5227	0.0476	+354.5
318.83	7.7451E+5	4.5156	Inf	-1.4
319.01	7.7501E+5	4.5255	0.0479	-7.9
319.18	7.7551E+5	4.5142	0.0476	+347.3
319.36	7.7601E+5	4.5255	Inf	-5.2
319.53	7.7651E+5	4.5227	Inf	-0.4
319.71	7.7701E+5	4.5269	0.0487	-4.4
319.88	7.7751E+5	4.5170	Inf	-1.0
320.06	7.7801E+5	4.5241	0.0474	+1.3
320.23	7.7851E+5	4.5212	0.0469	-357.1
320.43	7.7901E+5	4.5212	Inf	-4.6
320.59	7.7951E+5	4.5184	Inf	-1.5
320.78	7.8001E+5	4.5170	0.0469	-4.5
320.94	7.8051E+5	4.5170	0.0460	-3.9
321.13	7.8101E+5	4.5184	0.0464	+0.8
321.29	7.8151E+5	4.5198	0.0464	+1.7
321.48	7.8201E+5	4.5198	0.0466	+0.1
321.64	7.8251E+5	4.5184	0.0471	-351.7
321.82	7.8301E+5	4.5198	0.0458	+358.3
322.01	7.8351E+5	4.5198	0.0463	-6.9
322.21	7.8401E+5	4.5255	0.0466	+0.0
322.37	7.8451E+5	4.5255	Inf	+3.2
322.56	7.8501E+5	4.5227	Inf	-4.0
322.72	7.8551E+5	4.5212	0.0513	-1.7
322.92	7.8601E+5	4.5212	0.0480	+344.8
323.11	7.8651E+5	4.5241	0.0464	-1.4
323.31	7.8701E+5	4.5198	Inf	+0.0
323.47	7.8751E+5	4.5170	0.0479	-12.3
323.67	7.8801E+5	4.5212	0.0453	-1.0
323.85	7.8851E+5	4.5212	0.0467	+350.4
324.05	7.8901E+5	4.5212	0.0479	+352.5
324.24	7.8951E+5	4.5212	0.0462	+0.0
324.44	7.9001E+5	4.5142	0.0457	-358.3
324.60	7.9051E+5	4.5156	0.0471	+355.2
324.79	7.9101E+5	4.5198	0.0470	+3.1
324.97	7.9151E+5	4.5198	0.0457	+0.1
325.15	7.9201E+5	4.5198	0.0460	-6.7
325.35	7.9251E+5	4.5212	0.0457	-2.3
325.53	7.9301E+5	4.5184	0.0461	-8.1
325.73	7.9351E+5	4.5142	0.0470	-3.3
325.90	7.9401E+5	4.5212	Inf	-4.3
326.08	7.9451E+5	4.5142	0.0459	-5.7
326.26	7.9501E+5	4.5170	Inf	-15.6
326.45	7.9551E+5	4.5113	Inf	-0.3
326.63	7.9601E+5	4.5161	0.0443	+0.0
326.85	7.9651E+5	4.5142	0.0454	-6.6
327.03	7.9701E+5	4.5283	Inf	+5.3
327.21	7.9751E+5	4.5099	0.0462	-0.4
327.41	7.9801E+5	4.5142	0.0453	-356.4
327.63	7.9851E+5	4.5241	0.0462	+5.8
327.81	7.9901E+5	4.5198	0.0458	+1.2
328.01	7.9951E+5	4.5184	0.0514	+5.8
328.20	8.0001E+5	4.5198	0.0459	+1.7
328.38	8.0051E+5	4.5128	0.0459	-356.1
328.56	8.0101E+5	4.5241	0.0481	-3.0
328.74	8.0151E+5	4.5227	Inf	-3.3
328.93	8.0201E+5	4.5170	0.0453	-1.4
329.11	8.0251E+5	4.5113	0.0469	-355.4
329.34	8.0301E+5	4.5133	0.0480	+347.8
329.54	8.0351E+5	4.5212	0.0458	+3.0
329.74	8.0401E+5	4.5227	0.0457	-2.6
329.91	8.0451E+5	4.5184	Inf	-3.3
330.09	8.0501E+5	4.5227	0.0455	+0.6
330.26	8.0551E+5	4.5156	0.0451	-3.9
330.44	8.0601E+5	4.5184	Inf	+349.0
330.61	8.0651E+5	4.5170	0.0445	-356.8
330.81	8.0701E+5	4.5212	Inf	+0.9
330.97	8.0751E+5	4.5212	Inf	+1.7
331.14	8.0801E+5	4.5142	0.0452	-3.2
331.34	8.0851E+5	4.5156	Inf	-5.8
331.50	8.0901E+5	4.5156	Inf	-5.4
331.67	8.0951E+5	4.5198	0.0450	+356.8
331.84	8.1001E+5	4.5212	Inf	+333.2
332.02	8.1051E+5	4.5198	0.0445	+4.4
332.20	8.1101E+5	4.5156	0.0456	-2.0
332.40	8.1151E+5	4.5156	Inf	-2.0
332.57	8.1201E+5	4.5269	0.0454	-2.6
332.75	8.1251E+5	4.5170	Inf	+343.9
332.92	8.1301E+5	4.5184	Inf	+1.6
333.08	8.1351E+5	4.5198	0.0459	+351.1
333.27	8.1401E+5	4.5156	0.0456	+354.1
333.43	8.1451E+5	4.5113	0.0448	-2.9
333.63	8.1501E+5	4.5164	Inf	-8.1
333.81	8.1551E+5	4.5227	Inf	-1.9
334.00	8.1601E+5	4.5184	Inf	+2.8
334.17	8.1651E+5	4.5170	0.0445	+0.1
334.37	8.1701E+5	4.5184	0.0443	-3.7
334.53	8.1751E+5	4.5212	Inf	-11.0
334.71	8.1801E+5	4.5184	Inf	-6.0
334.88	8.1851E+5	4.5184	0.0450	+358.1
335.05	8.1901E+5	4.5198	Inf	+1.3
335.23	8.1951E+5	4.5212	Inf	-4.7
335.40	8.2001E+5	4.5198	0.0450	-4.6
335.56	8.2051E+5	4.5212	Inf	-7.1
335.73	8.2101E+5	4.5142	Inf	-4.9
335.91	8.2151E+5	4.5198	Inf	+336.0
336.08	8.2201E+5	4.5198	0.0447	-352.4
336.26	8.2251E+5	4.5184	0.0446	+355.3
336.43	8.2301E+5	4.5184	Inf	-1.8
336.59	8.2351E+5	4.5128	0.0440	+2.1
336.79	8.2401E+5	4.5128	0.0445	+353.8
336.96	8.2451E+5	4.5212	0.0462	+0.1
337.16	8.2501E+5	4.5142	0.0457	-1.5
337.34	8.2551E+5	4.5142	0.0444	-5.2
337.54	8.2601E+5	4.5184	0.0444	-2.1
337.71	8.2651E+5	4.5184	0.0444	-5.4
337.87	8.2701E+5	4.5156	Inf	+3.9
338.06	8.2751E+5	4.5184	0.0450	+357.5
338.24	8.2801E+5	4.5227	0.0503	-13.1
338.44	8.2851E+5	4.5113	0.0465	-0.1
338.64	8.2901E+5	4.5173	Inf	+4.2
338.84	8.2951E+5	4.5184	0.0444	-1.0
339.02	8.3001E+5	4.5071	0.0444	-6.0
339.22	8.3051E+5	4.5214	0.0450	-7.5
339.42	8.3101E+5	4.5184	Inf	-7.6
339.59	8.3151E+5	4.5198	Inf	+343.7
339.77	8.3201E+5	4.5198	0.0442	-357.8
339.95	8.3251E+5	4.5071	Inf	+1.2
340.15	8.3301E+5	4.5098	Inf	-4.2
340.32	8.3351E+5	4.5133	0.0443	+350.9
340.52	8.3401E+5	4.5198	0.0444	+355.5
340.68	8.3451E+5	4.5184	0.0439	+0.0
340.85	8.3501E+5	4.5142	0.0442	-8.4
341.02	8.3551E+5	4.5170	Inf	-357.1
341.18	8.3601E+5	4.5128	Inf	-10.5
341.37	8.3651E+5	4.5184	Inf	-0.6
341.53	8.3701E+5	4.5142	0.0442	-5.6
341.71	8.3751E+5	4.5156	0.0450	-352.3
341.90	8.3801E+5	4.5128	0.0444	+349.9
342.08	8.3851E+5	4.5170	Inf	+342.2
342.26	8.3901E+5	4.5227	0.0451	+348.4
342.45	8.3951E+5	4.5128	Inf	+1.7
342.63	8.4001E+5	4.5156	0.0440	+352.1
342.81	8.4051E+5	4.5128	0.0449	-356.1
343.01	8.4101E+5	4.5128	Inf	-19.0
343.18	8.4151E+5	4.5170	Inf	-14.5
343.35	8.4201E+5	4.5198	0.0440	+1.1
343.55	8.4251E+5	4.5156	0.0439	+350.9
343.71	8.4301E+5	4.5184	Inf	+1.5
343.89	8.4351E+5	4.5212	Inf	-2.6
344.06	8.4401E+5	4.5113	0.0440	-1.8
344.26	8.4451E+5	4.5197	0.0437	+1.5
344.44	8.4501E+5	4.5212	0.0474	-2.0
344.61	8.4551E+5	4.5085	Inf	+8.7
344.81	8.4601E+5	4.5085	Inf	+0.5
344.98	8.4651E+5	4.5142	0.0458	-362.1
345.19	8.4701E+5	4.5170	0.0439	-5.0
345.38	8.4751E+5	4.5170	0.0447	-9.6
345.56	8.4801E+5	4.5184	0.0430	+6.0
345.76	8.4851E+5	4.5142	Inf	-1.1
345.92	8.4901E+5	4.5227	0.0448	+349.5
346.12	8.4951E+5	4.5113	Inf	+345.9
346.31	8.5001E+5	4.5195	0.0452	+347.8
346.50	8.5051E+5	4.5156	Inf	-10.1
346.67	8.5101E+5	4.5029	0.0444	+357.7
346.87	8.5151E+5	4.5159	0.0437	-8.6
347.07	8.5201E+5	4.5128	0.0480	+355.1
347.25	8.5251E+5	4.5198	0.0446	+353.6
347.45	8.5301E+5	4.5241	Inf	-2.6
347.62	8.5351E+5	4.5029	0.0430	+0.6
347.82	8.5401E+5	4.5167	0.0437	-8.6
348.04	8.5451E+5	4.5142	0.0427	-8.5
348.22	8.5501E+5	4.5156	0.0440	+347.3
348.42	8.5551E+5	4.5142	0.0443	-359.1
348.58	8.5601E+5	4.5085	0.0443	-358.8
348.77	8.5651E+5	4.5095	0.0447	-357.4
348.97	8.5701E+5	4.5125	0.0431	-6.0
349.17	8.5751E+5	4.5142	Inf	-0.6
349.35	8.5801E+5	4.5142	Inf	-8.0
349.51	8.5851E+5	4.5156	Inf	-15.5
349.70	8.5901E+5	4.5170	0.0448	+349.1
349.87	8.5951E+5	4.5212	0.0440	+352.3
350.05	8.6001E+5	4.5142	Inf	-1.1
350.23	8.6051E+5	4.5043	0.0439	+0.2
350.41	8.6101E+5	4.5098	0.0420	+355.4
350.61	8.6151E+5	4.5101	0.0436	-3.7
350.80	8.6201E+5	4.5079	Inf	-0.9
350.96	8.6251E+5	4.5116	0.0476	+351.5
351.18	8.6301E+5	4.5043	0.0429	-1.2
351.38	8.6351E+5	4.5126	0.0428	-8.1
351.58	8.6401E+5	4.5085	0.0428	-0.3
351.76	8.6451E+5	4.5043	0.0427	+359.4
351.93	8.6501E+5	4.5149	Inf	+3.4
352.13	8.6551E+5	4.5156	Inf	+1.1
352.29	8.6601E+5	4.5128	0.0429	-358.3
352.48	8.6651E+5	4.5113	Inf	-2.8
352.66	8.6701E+5	4.5119	Inf	+339.9
352.84	8.6751E+5	4.5071	0.0424	-1.7
353.04	8.6801E+5	4.5026	0.0427	-356.1
353.21	8.6851E+5	4.5092	0.0438	-0.2
353.41	8.6901E+5	4.5048	0.0425	-8.3
353.59	8.6951E+5	4.5136	Inf	-4.7
353.77	8.7001E+5	4.5043	0.0427	+2.5
353.97	8.7051E+5	4.5106	0.0441	+356.4
354.15	8.7101E+5	4.5067	Inf	-3.0
354.34	8.7151E+5	4.5075	Inf	-6.8
354.50	8.7201E+5	4.5126	0.0441	-2.8
354.69	8.7251E+5	4.5043	Inf	-6.8
354.89	8.7301E+5	4.5132	0.0430	+2.0
355.09	8.7351E+5	4.5142	0.0419	-4.9
355.27	8.7401E+5	4.5128	0.0427	+360.3
355.44	8.7451E+5	4.5043	0.0429	-4.9
355.62	8.7501E+5	4.5140	0.0440	+350.6
355.83	8.7551E+5	4.5128	0.0440	+350.4
356.00	8.7601E+5	4.5113	0.0418	-4.6
356.20	8.7651E+5	4.5104	0.0429	+356.1
356.38	8.7701E+5	4.5125	0.0414	-1.1
356.58	8.7751E+5	4.5156	0.0434	-362.4
356.78	8.7801E+5	4.5128	0.0422	+0.5
356.97	8.7851E+5	4.5113	0.0428	-3.5
357.15	8.7901E+5	4.5075	Inf	-2.1
357.33	8.7951E+5	4.5108	0.0430	-6.5
357.50	8.8001E+5	4.5133	0.0388	-6.2
357.71	8.8051E+5	4.5071	0.0426	-4.0
357.91	8.8101E+5	4.5109	0.0424	-3.0
358.08	8.8151E+5	4.5106	Inf	-7.6
358.26	8.8201E+5	4.5120	Inf	-14.2
358.45	8.8251E+5	4.5071	0.0419	-4.1
358.63	8.8301E+5	4.5150	Inf	-24.2
358.81	8.8351E+5	4.5057	0.0416	-1.3
359.01	8.8401E+5	4.5098	Inf	+0.5
359.19	8.8451E+5	4.5163	Inf	-0.2
359.38	8.8501E+5	4.5000	0.0425	+1.9
359.58	8.8551E+5	4.5046	0.0420	-3.0
359.76	8.8601E+5	4.5063	Inf	-2.2
359.93	8.8651E+5	4.5033	0.0428	+359.0
360.11	8.8701E+5	4.5099	Inf	-9.7
360.28	8.8751E+5	4.5105	0.0430	+349.5
360.44	8.8801E+5	4.5118	0.0409	-2.6
360.66	8.8851E+5	4.5085	Inf	+6.9
360.84	8.8901E+5	4.5089	0.0410	-5.3
361.01	8.8951E+5	4.5096	0.0428	+358.1
361.21	8.9001E+5	4.5126	0.0420	-1.1
361.39	8.9051E+5	4.5099	Inf	+0.3
361.59	8.9101E+5	4.5166	0.0483	+351.4
361.79	8.9151E+5	4.5113	0.0428	-1.3
361.99	8.9201E+5	4.5099	0.0421	-2.6
362.17	8.9251E+5	4.5034	Inf	-9.5
362.34	8.9301E+5	4.5048	0.0414	-4.2
362.52	8.9351E+5	4.5017	Inf	-3.5
362.69	8.9401E+5	4.5095	0.0435	+356.3
362.87	8.9451E+5	4.5112	0.0439	+358.2
363.05	8.9501E+5	4.5137	0.0418	-5.8
363.25	8.9551E+5	4.5057	0.0422	+354.0
363.44	8.9601E+5	4.5112	0.0408	-2.3
363.63	8.9651E+5	4.5002	Inf	-6.9
363.80	8.9701E+5	4.5053	Inf	-9.4
363.97	8.9751E+5	4.5070	Inf	-1.3
364.15	8.9801E+5	4.5071	0.0408	-2.4
364.32	8.9851E+5	4.5068	Inf	+5.0
364.50	8.9901E+5	4.5078	0.0434	+356.6
364.67	8.9951E+5	4.5047	Inf	-1.8
364.83	9.0001E+5	4.5132	Inf	-5.7
365.03	9.0051E+5	4.5113	0.0457	-358.5
365.23	9.0101E+5	4.5200	0.0420	-3.6
365.43	9.0151E+5	4.5057	0.0412	-0.2
365.65	9.0201E+5	4.5044	0.0421	-6.2
365.83	9.0251E+5	4.5113	0.0421	-1.3
366.01	9.0301E+5	4.4995	0.0415	-0.6
366.20	9.0351E+5	4.5104	Inf	-2.0
366.36	9.0401E+5	4.5096	Inf	-358.5
366.55	9.0451E+5	4.5084	0.0415	-13.7
366.69	9.0501E+5	4.5119	0.0421	-353.5
366.89	9.0551E+5	4.5071	0.0425	+355.0
367.10	9.0601E+5	4.5055	0.0419	+356.9
367.26	9.0651E+5	4.5096	0.0423	-3.4
367.43	9.0701E+5	4.5038	Inf	-0.7
367.61	9.0751E+5	4.5084	0.0410	-9.6
367.79	9.0801E+5	4.5067	0.0423	+2.0
367.99	9.0851E+5	4.5055	0.0435	-359.5
368.18	9.0901E+5	4.5135	0.0411	-1.3
368.37	9.0951E+5	4.5099	Inf	+347.4
368.57	9.1001E+5	4.4988	0.0421	+360.2
368.76	9.1051E+5	4.5040	Inf	-1.6
368.93	9.1101E+5	4.5048	0.0431	+25.0
369.11	9.1151E+5	4.5135	0.0373	-7.2
369.31	9.1201E+5	4.4972	Inf	-2.5
369.49	9.1251E+5	4.5075	Inf	-12.7
369.67	9.1301E+5	4.5068	0.0420	-2.5
369.85	9.1351E+5	4.5044	Inf	-3.0
370.04	9.1401E+5	4.5029	0.0422	+356.2
370.20	9.1451E+5	4.5033	0.0409	-2.1
370.39	9.1501E+5	4.5092	0.0416	-3.5
370.57	9.1551E+5	4.4992	0.0450	-362.0
370.75	9.1601E+5	4.5033	Inf	-3.8
370.92	9.1651E+5	4.5046	0.0438	+358.7
371.12	9.1701E+5	4.5047	0.0409	-1.6
371.30	9.1751E+5	4.5019	0.0423	+357.7
371.49	9.1801E+5	4.5081	0.0411	-356.0
371.69	9.1851E+5	4.5074	0.0421	-357.7
371.87	9.1901E+5	4.5154	0.0411	-0.7
372.07	9.1951E+5	4.5043	Inf	-15.4
372.27	9.2001E+5	4.5109	0.0451	+354.2
372.45	9.2051E+5	4.5041	Inf	+343.6
372.63	9.2101E+5	4.4978	0.0429	+363.6
372.81	9.2151E+5	4.5046	0.0409	-3.0
373.00	9.2201E+5	4.5024	Inf	+6.0
373.18	9.2251E+5	4.5055	0.0418	-361.8
373.36	9.2301E+5	4.5075	0.0432	+357.3
373.55	9.2351E+5	4.5005	Inf	+0.3
373.73	9.2401E+5	4.5030	0.0419	+358.3
373.91	9.2451E+5	4.5077	0.0418	+4.7
374.08	9.2501E+5	4.5013	0.0427	+354.0
374.26	9.2551E+5	4.5125	Inf	-6.5
374.44	9.2601E+5	4.5029	Inf	-13.5
374.63	9.2651E+5	4.5029	Inf	-0.3
374.81	9.2701E+5	4.4993	0.0405	-4.5
374.99	9.2751E+5	4.5092	Inf	+0.2
375.16	9.2801E+5	4.5006	0.0410	-4.2
375.34	9.2851E+5	4.5002	0.0380	-5.5
375.53	9.2901E+5	4.5106	0.0430	+1.2
375.71	9.2951E+5	4.5058	0.0421	-360.0
375.89	9.3001E+5	4.5061	Inf	-5.9
376.06	9.3051E+5	4.5047	0.0424	+357.8
376.24	9.3101E+5	4.5054	0.0413	+359.0
376.41	9.3151E+5	4.5105	Inf	+2.9
376.57	9.3201E+5	4.5091	Inf	+2.0
376.76	9.3251E+5	4.5060	Inf	-17.6
376.92	9.3301E+5	4.5054	Inf	+5.4
377.09	9.3351E+5	4.5070	Inf	+1.9
377.27	9.3401E+5	4.5065	0.0429	-356.6
377.46	9.3451E+5	4.5070	0.0402	-1.2
377.64	9.3501E+5	4.5072	0.0413	-5.6
377.84	9.3551E+5	4.4990	Inf	+343.3
378.00	9.3601E+5	4.5046	Inf	-11.8
378.17	9.3651E+5	4.5033	0.0409	-8.9
378.34	9.3701E+5	4.5058	Inf	-10.5
378.50	9.3751E+5	4.5077	Inf	+2.9
378.67	9.3801E+5	4.5033	0.0408	+6.2
378.85	9.3851E+5	4.5029	Inf	-11.8
379.02	9.3901E+5	4.5079	0.0410	-4.7
379.19	9.3951E+5	4.4989	0.0442	+357.1
379.38	9.4001E+5	4.5116	0.0431	+365.1
379.58	9.4051E+5	4.5043	0.0401	+0.7
379.79	9.4101E+5	4.5043	0.0403	-8.2
379.98	9.4151E+5	4.5061	0.0426	-360.8
380.17	9.4201E+5	4.5020	Inf	-10.5
380.33	9.4251E+5	4.5009	0.0417	+360.8
380.53	9.4301E+5	4.5075	0.0385	-3.4
380.71	9.4351E+5	4.5040	0.0434	-358.5
380.90	9.4401E+5	4.4995	0.0422	+358.0
381.10	9.4451E+5	4.4961	Inf	-0.2
381.26	9.4501E+5	4.5024	Inf	-26.4
381.43	9.4551E+5	4.5058	Inf	-7.3
381.61	9.4601E+5	4.5078	0.0414	+355.6
381.80	9.4651E+5	4.4961	Inf	+2.0
381.96	9.4701E+5	4.5026	0.0406	-358.6
382.14	9.4751E+5	4.5077	0.0405	+0.0
382.31	9.4801E+5	4.5017	0.0407	+350.3
382.48	9.4851E+5	4.4951	0.0434	+357.3
382.68	9.4901E+5	4.4986	0.0412	+361.2
382.86	9.4951E+5	4.5065	0.0407	+1.0
383.03	9.5001E+5	4.5057	0.0420	+6.1
383.23	9.5051E+5	4.5048	0.0414	+359.8
383.41	9.5101E+5	4.5075	Inf	-4.5
383.57	9.5151E+5	4.5063	Inf	+3.9
383.76	9.5201E+5	4.5010	Inf	+343.9
383.93	9.5251E+5	4.5047	0.0433	-361.4
384.11	9.5301E+5	4.5021	Inf	-22.1
384.27	9.5351E+5	4.5044	0.0398	-3.4
384.44	9.5401E+5	4.4989	0.0416	-3.3
384.61	9.5451E+5	4.5007	Inf	-7.6
384.77	9.5501E+5	4.4980	0.0434	-361.9
384.95	9.5551E+5	4.4986	0.0415	+356.4
385.12	9.5601E+5	4.5009	0.0401	-4.1
385.30	9.5651E+5	4.4975	Inf	+7.2
385.45	9.5701E+5	4.4959	0.0401	+0.2
385.60	9.5751E+5	4.5019	0.0403	-3.6
385.77	9.5801E+5	4.5063	Inf	-5.0
385.92	9.5851E+5	4.4961	Inf	+352.6
386.09	9.5901E+5	4.5038	0.0407	+0.5
386.29	9.5951E+5	4.5013	Inf	-6.0
386.44	9.6001E+5	4.5012	Inf	-10.6
386.60	9.6051E+5	4.4971	0.0399	-6.6
386.78	9.6101E+5	4.4983	Inf	+330.9
386.94	9.6151E+5	4.5021	0.0400	+2.3
387.10	9.6201E+5	4.5002	Inf	-16.6
387.28	9.6251E+5	4.5005	0.0408	+4.9
387.47	9.6301E+5	4.5034	Inf	+343.1
387.63	9.6351E+5	4.5023	0.0406	-3.8
387.80	9.6401E+5	4.4988	0.0411	-359.8
387.97	9.6451E+5	4.5041	0.0412	+3.5
388.13	9.6501E+5	4.4941	0.0412	+1.0
388.31	9.6551E+5	4.4935	Inf	+343.6
388.48	9.6601E+5	4.5094	0.0426	-4.9
388.66	9.6651E+5	4.5068	Inf	-3.1
388.85	9.6701E+5	4.4944	0.0401	-1.7
389.01	9.6751E+5	4.4932	0.0415	-361.7
389.20	9.6801E+5	4.4966	Inf	-3.1
389.36	9.6851E+5	4.4891	Inf	-4.9
389.55	9.6901E+5	4.4979	Inf	-20.4
389.71	9.6951E+5	4.5030	Inf	+0.3
389.88	9.7001E+5	4.4993	0.0402	+1.2
390.08	9.7051E+5	4.4995	Inf	+367.2
390.24	9.7101E+5	4.4973	Inf	+347.8
390.41	9.7151E+5	4.4959	0.0403	-10.1
390.61	9.7201E+5	4.4925	Inf	+1.9
390.78	9.7251E+5	4.4966	0.0406	+3.5
390.94	9.7301E+5	4.5014	0.0396	+3.7
391.14	9.7351E+5	4.4955	Inf	-3.9
391.31	9.7401E+5	4.5023	0.0407	+357.5
391.48	9.7451E+5	4.5034	Inf	-0.4
391.66	9.7501E+5	4.4961	0.0392	-3.5
391.84	9.7551E+5	4.5029	0.0408	+354.2
392.02	9.7601E+5	4.4955	0.0408	+352.8
392.20	9.7651E+5	4.4972	0.0404	-7.2
392.36	9.7701E+5	4.4972	0.0370	-8.4
392.52	9.7751E+5	4.5000	0.0412	+358.1
392.72	9.7801E+5	4.4944	0.0431	+363.0
392.90	9.7851E+5	4.5000	Inf	-3.0
393.07	9.7901E+5	4.5000	Inf	+352.6
393.24	9.7951E+5	4.4986	Inf	-15.7
393.42	9.8001E+5	4.4944	0.0392	+4.6
393.60	9.8051E+5	4.4944	Inf	-7.7
393.77	9.8101E+5	4.4873	Inf	-356.3
393.95	9.8151E+5	4.4915	0.0397	-1.4
394.12	9.8201E+5	4.5000	0.0403	+6.0
394.29	9.8251E+5	4.4972	Inf	+352.9
394.47	9.8301E+5	4.4972	Inf	-12.6
394.63	9.8351E+5	4.5043	0.0400	+7.4
394.80	9.8401E+5	4.5085	0.0406	+362.8
394.98	9.8451E+5	4.4944	Inf	-360.7
395.13	9.8501E+5	4.4901	0.0405	+358.9
395.26	9.8551E+5	4.4915	Inf	-5.1
395.42	9.8601E+5	4.5029	Inf	-3.4
395.58	9.8651E+5	4.5014	Inf	-5.0
395.75	9.8701E+5	4.4972	0.0398	-0.5
395.92	9.8751E+5	4.4915	0.0420	-360.9
396.12	9.8801E+5	4.5000	0.0422	+0.2
396.28	9.8851E+5	4.4986	0.0401	+0.9
396.45	9.8901E+5	4.4958	0.0395	+350.9
396.63	9.8951E+5	4.4986	0.0405	+0.9
396.81	9.9001E+5	4.5029	Inf	-2.1
396.98	9.9051E+5	4.4930	Inf	-1.2
397.16	9.9101E+5	4.4972	0.0391	-1.8
397.35	9.9151E+5	4.4972	0.0391	-9.4
397.51	9.9201E+5	4.4901	0.0397	+2.9
397.68	9.9251E+5	4.5000	Inf	-1.8
397.86	9.9301E+5	4.5000	0.0420	-361.6
398.05	9.9351E+5	4.4859	0.0397	-358.0
398.23	9.9401E+5	4.4972	0.0398	-11.1
398.41	9.9451E+5	4.4972	Inf	-1.8
398.58	9.9501E+5	4.4972	Inf	-7.7
398.74	9.9551E+5	4.4986	0.0403	+3.8
398.93	9.9601E+5	4.5029	0.0403	+357.7
399.11	9.9651E+5	4.4958	Inf	+1.8
399.28	9.9701E+5	4.5014	0.0399	+5.6
399.48	9.9751E+5	4.4930	0.0403	+354.3
399.66	9.9801E+5	4.4915	Inf	-5.2
399.82	9.9851E+5	4.4944	Inf	-6.1
399.99	9.9901E+5	4.5014	Inf	-1.4
400.16	9.9951E+5	4.4915	0.0390	-0.4
400.32	1.0000E+6	4.4972	0.0402	-7.8
400.49	1.0005E+6	4.5000	Inf	+343.5
400.65	1.0010E+6	4.4873	Inf	+350.8
400.82	1.0015E+6	4.4944	Inf	-18.7
400.99	1.0020E+6	4.5000	Inf	-0.5
401.17	1.0025E+6	4.5014	0.0400	+2.0
401.34	1.0030E+6	4.5014	0.0396	-0.5
401.50	1.0035E+6	4.4788	Inf	+0.2
401.69	1.0040E+6	4.5043	Inf	-1.1
401.89	1.0045E+6	4.4958	0.0416	+360.4
402.07	1.0050E+6	4.4887	Inf	-8.9
402.24	1.0055E+6	4.5029	0.0366	-9.4
402.44	1.0060E+6	4.4958	0.0392	-6.7
402.62	1.0065E+6	4.4887	0.0402	-6.9
402.78	1.0070E+6	4.4986	Inf	-14.1
402.95	1.0075E+6	4.5014	Inf	-365.2
403.13	1.0080E+6	4.4958	Inf	-356.4
403.30	1.0085E+6	4.4972	0.0420	+360.4
403.47	1.0090E+6	4.4930	Inf	-6.0
403.65	1.0095E+6	4.4887	Inf	-2.5
403.81	1.0100E+6	4.4958	Inf	-7.6
403.98	1.0105E+6	4.4915	0.0403	+353.1
404.18	1.0110E+6	4.4915	Inf	-3.8
404.35	1.0115E+6	4.4958	Inf	+1.8
404.51	1.0120E+6	4.4887	Inf	+1.1
404.68	1.0125E+6	4.4802	0.0383	+345.5
404.90	1.0130E+6	4.4972	Inf	-359.8
405.08	1.0135E+6	4.4944	0.0390	+2.4
405.26	1.0140E+6	4.4915	Inf	-26.8
405.44	1.0145E+6	4.5000	0.0404	+1.6
405.63	1.0150E+6	4.4930	0.0399	+358.9
405.81	1.0155E+6	4.4915	0.0400	+359.1
405.98	1.0160E+6	4.4915	0.0396	+5.9
406.16	1.0165E+6	4.5014	0.0418	-364.2
406.34	1.0170E+6	4.4930	0.0398	-360.7
406.53	1.0175E+6	4.4887	0.0395	-1.5
406.69	1.0180E+6	4.4915	Inf	-0.5
406.86	1.0185E+6	4.4831	0.0405	-1.1
407.06	1.0190E+6	4.4986	0.0397	-11.5
407.26	1.0195E+6	4.5000	0.0397	+7.3
407.44	1.0200E+6	4.4958	Inf	-367.2
407.61	1.0205E+6	4.4873	0.0402	+363.7
407.77	1.0210E+6	4.4986	Inf	+0.2
407.95	1.0215E+6	4.4859	Inf	+340.1
408.12	1.0220E+6	4.4972	Inf	-2.4
408.29	1.0225E+6	4.4873	0.0425	+359.8
408.46	1.0230E+6	4.4887	0.0391	-2.8
408.65	1.0235E+6	4.4915	0.0400	+4.8
408.82	1.0240E+6	4.4986	Inf	+349.5
408.99	1.0245E+6	4.4873	0.0403	+3.3
409.15	1.0250E+6	4.5014	0.0418	-360.4
409.34	1.0255E+6	4.4930	0.0392	-2.0
409.52	1.0260E+6	4.4859	0.0383	-3.0
409.70	1.0265E+6	4.4887	Inf	+355.6
409.89	1.0270E+6	4.4887	0.0370	-5.0
410.07	1.0275E+6	4.5000	0.0397	-360.7
410.25	1.0280E+6	4.4930	0.0396	+0.7
410.42	1.0285E+6	4.4915	0.0383	+5.4
410.58	1.0290E+6	4.4915	Inf	+5.4
410.75	1.0295E+6	4.4873	Inf	+346.1
410.92	1.0300E+6	4.4887	0.0398	+1.3
411.10	1.0305E+6	4.4972	Inf	-10.2
411.25	1.0310E+6	4.4944	Inf	+0.4
411.42	1.0315E+6	4.4972	0.0394	-6.1
411.60	1.0320E+6	4.4944	Inf	+358.3
411.76	1.0325E+6	4.4930	Inf	+341.1
411.93	1.0330E+6	4.4887	0.0392	-0.2
412.10	1.0335E+6	4.4887	0.0404	+358.1
412.30	1.0340E+6	4.4930	Inf	-4.6
412.46	1.0345E+6	4.4887	Inf	+340.4
412.63	1.0350E+6	4.4859	0.0397	+360.2
412.83	1.0355E+6	4.4944	0.0388	-2.4
413.01	1.0360E+6	4.4944	Inf	-6.6
413.18	1.0365E+6	4.4901	0.0385	-3.0
413.35	1.0370E+6	4.4901	Inf	-352.7
413.53	1.0375E+6	4.4915	0.0404	-0.9
413.71	1.0380E+6	4.4944	Inf	-2.6
413.88	1.0385E+6	4.4915	Inf	+6.8
414.06	1.0390E+6	4.4915	Inf	-20.2
414.23	1.0395E+6	4.4915	Inf	+2.6
414.37	1.0400E+6	4.4887	0.0397	+357.6
414.56	1.0405E+6	4.4901	0.0381	+0.7
414.76	1.0410E+6	4.4802	Inf	-2.6
414.94	1.0415E+6	4.4930	Inf	+353.1
415.12	1.0420E+6	4.4972	Inf	-2.4
415.29	1.0425E+6	4.4859	Inf	+2.6
415.47	1.0430E+6	4.4958	0.0403	-2.6
415.66	1.0435E+6	4.4873	0.0398	+358.5
415.84	1.0440E+6	4.4986	0.0397	-361.7
416.02	1.0445E+6	4.4873	Inf	+6.6
416.17	1.0450E+6	4.4901	Inf	-358.9
416.34	1.0455E+6	4.4887	Inf	+0.4
416.50	1.0460E+6	4.4944	0.0375	-6.2
416.70	1.0465E+6	4.4845	0.0431	+361.7
416.89	1.0470E+6	4.4958	0.0392	+360.8
417.07	1.0475E+6	4.4831	Inf	+Inf
417.25	1.0480E+6	4.4816	0.0386	-1.1
417.45	1.0485E+6	4.4887	Inf	-359.8
417.64	1.0490E+6	4.4873	Inf	+4.5
417.80	1.0495E+6	4.4887	Inf	+349.8
417.99	1.0500E+6	4.4887	Inf	+340.1
418.15	1.0505E+6	4.4915	Inf	-12.9
418.32	1.0510E+6	4.4986	0.0400	-362.5
418.50	1.0515E+6	4.5071	Inf	-368.3
418.68	1.0520E+6	4.5000	0.0386	+1.5
418.87	1.0525E+6	4.5000	Inf	+344.1
419.03	1.0530E+6	4.4972	Inf	+356.4
419.20	1.0535E+6	4.4958	Inf	+343.2
419.38	1.0540E+6	4.5014	0.0389	-7.4
419.56	1.0545E+6	4.5085	0.0383	-1.7
419.75	1.0550E+6	4.4986	0.0401	+362.3
419.95	1.0555E+6	4.5057	0.0385	-2.3
420.13	1.0560E+6	4.5000	0.0400	+356.2
420.31	1.0565E+6	4.5071	Inf	+351.6
420.48	1.0570E+6	4.4944	Inf	+6.8
420.66	1.0575E+6	4.5057	Inf	+343.7
420.83	1.0580E+6	4.5071	Inf	-19.2
421.00	1.0585E+6	4.5113	0.0376	+354.3
421.18	1.0590E+6	4.5000	0.0397	-1.1
421.38	1.0595E+6	4.5085	0.0395	+357.3
421.54	1.0600E+6	4.5085	Inf	-4.2
421.71	1.0605E+6	4.5029	0.0389	+0.2
421.91	1.0610E+6	4.5014	Inf	+329.8
422.08	1.0615E+6	4.5057	Inf	-0.4
422.24	1.0620E+6	4.5071	0.0381	-356.0
422.41	1.0625E+6	4.5043	0.0382	-4.8
422.59	1.0630E+6	4.5071	0.0385	-1.5
422.76	1.0635E+6	4.4958	0.0404	+361.0
422.94	1.0640E+6	4.4986	0.0397	-7.1
423.12	1.0645E+6	4.5014	0.0393	-1.7
423.29	1.0650E+6	4.5014	Inf	-15.1
423.46	1.0655E+6	4.5043	Inf	-18.4
423.62	1.0660E+6	4.5000	0.0384	+7.1
423.81	1.0665E+6	4.5014	Inf	+5.6
423.97	1.0670E+6	4.4986	Inf	-4.8
424.14	1.0675E+6	4.5057	Inf	+356.0
424.31	1.0680E+6	4.5029	Inf	-2.7
424.47	1.0685E+6	4.4972	Inf	-359.2
424.64	1.0690E+6	4.5043	0.0383	-0.6
424.79	1.0695E+6	4.5043	0.0414	-366.7
424.95	1.0700E+6	4.5043	Inf	+328.9
425.14	1.0705E+6	4.4986	Inf	+335.1
425.30	1.0710E+6	4.4972	0.0387	-2.5
425.49	1.0715E+6	4.4986	0.0391	-9.0
425.67	1.0720E+6	4.5000	0.0387	+353.6
425.87	1.0725E+6	4.5000	0.0391	-364.8
426.05	1.0730E+6	4.5000	0.0385	-2.1
426.23	1.0735E+6	4.5000	Inf	-357.9
426.40	1.0740E+6	4.4930	Inf	+347.1
426.58	1.0745E+6	4.4944	Inf	+349.4
426.75	1.0750E+6	4.4972	0.0401	+355.8
426.93	1.0755E+6	4.5057	Inf	-0.2
427.10	1.0760E+6	4.5000	0.0387	-358.8
427.30	1.0765E+6	4.4986	Inf	-355.3
427.46	1.0770E+6	4.5014	0.0389	+2.7
427.65	1.0775E+6	4.4944	Inf	-13.3
427.81	1.0780E+6	4.4986	Inf	-2.5
428.00	1.0785E+6	4.5043	Inf	-1.9
428.16	1.0790E+6	4.4958	0.0375	-1.4
428.35	1.0795E+6	4.5000	0.0385	-2.9
428.51	1.0800E+6	4.5014	0.0388	-5.0
428.70	1.0805E+6	4.4958	0.0391	+0.4
428.88	1.0810E+6	4.5014	0.0378	-354.7
429.06	1.0815E+6	4.4887	Inf	-359.2
429.23	1.0820E+6	4.5014	Inf	-27.3
429.39	1.0825E+6	4.4930	0.0407	+363.5
429.58	1.0830E+6	4.4986	0.0385	+2.9
429.76	1.0835E+6	4.4958	Inf	-16.8
429.93	1.0840E+6	4.5000	0.0381	-0.4
430.11	1.0845E+6	4.4972	0.0385	+1.8
430.27	1.0850E+6	4.4972	Inf	-360.8
430.44	1.0855E+6	4.4972	Inf	-0.4
430.62	1.0860E+6	4.5043	Inf	-15.2
430.79	1.0865E+6	4.5071	Inf	-7.6
430.96	1.0870E+6	4.4972	Inf	-6.1
431.12	1.0875E+6	4.5014	Inf	+343.0
431.31	1.0880E+6	4.5043	Inf	-353.7
431.47	1.0885E+6	4.4986	Inf	-358.4
431.64	1.0890E+6	4.4972	Inf	-1.0
431.81	1.0895E+6	4.5014	0.0391	-5.7
432.00	1.0900E+6	4.5000	0.0402	+1.8
432.17	1.0905E+6	4.4915	0.0387	+361.2
432.35	1.0910E+6	4.4944	Inf	-1.0
432.52	1.0915E+6	4.4944	Inf	-7.7
432.70	1.0920E+6	4.4986	0.0389	-2.4
432.89	1.0925E+6	4.4944	Inf	+348.4
433.05	1.0930E+6	4.5014	Inf	+352.7
433.20	1.0935E+6	4.5029	Inf	+351.3
433.38	1.0940E+6	4.5057	Inf	+362.6
433.55	1.0945E+6	4.5057	0.0393	-360.0
433.72	1.0950E+6	4.4958	0.0390	+5.9
433.88	1.0955E+6	4.4958	0.0377	+3.0
434.08	1.0960E+6	4.4986	Inf	-355.8
434.25	1.0965E+6	4.5014	0.0381	+1.2
434.42	1.0970E+6	4.5057	0.0385	-1.8
434.56	1.0975E+6	4.5000	Inf	-6.3
434.75	1.0980E+6	4.4887	0.0403	+364.5
434.92	1.0985E+6	4.4986	0.0374	-1.2
435.10	1.0990E+6	4.4944	Inf	+341.8
435.26	1.0995E+6	4.5029	0.0384	-7.9
435.46	1.1000E+6	4.4958	0.0385	-3.9
435.63	1.1005E+6	4.4930	Inf	-1.8
435.78	1.1010E+6	4.4958	Inf	+2.4
435.95	1.1015E+6	4.4915	Inf	+5.9
436.13	1.1020E+6	4.4901	Inf	-22.9
436.30	1.1025E+6	4.4958	0.0387	-2.2
436.46	1.1030E+6	4.4930	0.0375	-2.2
436.64	1.1035E+6	4.5014	Inf	-358.0
436.83	1.1040E+6	4.4972	Inf	+362.0
436.99	1.1045E+6	4.4944	0.0375	+3.2
437.16	1.1050E+6	4.5014	Inf	-2.2
437.33	1.1055E+6	4.4986	Inf	-14.9
437.49	1.1060E+6	4.5014	0.0372	+0.4
437.64	1.1065E+6	4.4986	Inf	+346.9
437.81	1.1070E+6	4.4915	0.0377	-3.2
437.99	1.1075E+6	4.4915	Inf	-354.8
438.16	1.1080E+6	4.4972	0.0376	+0.6
438.34	1.1085E+6	4.4901	0.0384	-1.6
438.51	1.1090E+6	4.5000	0.0390	-11.6
438.69	1.1095E+6	4.4972	Inf	-352.8
438.86	1.1100E+6	4.4901	Inf	-359.0
439.02	1.1105E+6	4.4930	Inf	+349.4
439.19	1.1110E+6	4.4915	Inf	-4.6
439.36	1.1115E+6	4.4915	Inf	-9.4
439.52	1.1120E+6	4.4915	0.0379	-0.6
439.72	1.1125E+6	4.4901	0.0377	-0.6
439.89	1.1130E+6	4.4887	0.0397	+364.6
440.07	1.1135E+6	4.5014	Inf	+6.0
440.24	1.1140E+6	4.4930	Inf	-4.0
440.42	1.1145E+6	4.4958	0.0408	+365.0
440.59	1.1150E+6	4.4958	0.0388	-0.8
440.77	1.1155E+6	4.4930	0.0382	-8.0
440.94	1.1160E+6	4.4873	Inf	-4.4
441.12	1.1165E+6	4.4972	Inf	-5.2
441.29	1.1170E+6	4.4958	0.0346	-9.3
441.47	1.1175E+6	4.4972	0.0377	-4.2
441.65	1.1180E+6	4.4901	Inf	-8.7
441.83	1.1185E+6	4.4986	Inf	+350.2
442.00	1.1190E+6	4.4915	Inf	+352.7
442.17	1.1195E+6	4.4944	0.0384	-6.9
442.33	1.1200E+6	4.4944	0.0386	+361.2
442.52	1.1205E+6	4.4986	0.0393	+355.6
442.70	1.1210E+6	4.4873	0.0385	-6.3
442.88	1.1215E+6	4.4930	Inf	+341.2
443.05	1.1220E+6	4.4958	Inf	-7.1
443.20	1.1225E+6	4.4930	0.0382	-5.2
443.38	1.1230E+6	4.4901	0.0395	+360.0
443.56	1.1235E+6	4.4887	Inf	-355.8
443.73	1.1240E+6	4.4986	0.0392	-5.3
443.90	1.1245E+6	4.4930	Inf	-4.5
444.08	1.1250E+6	4.4972	0.0371	-0.4
444.25	1.1255E+6	4.4972	Inf	+343.8
444.41	1.1260E+6	4.4901	Inf	-5.9
444.58	1.1265E+6	4.4944	0.0373	+0.8
444.76	1.1270E+6	4.4887	Inf	-372.8
444.93	1.1275E+6	4.4887	Inf	-42.5
445.09	1.1280E+6	4.4944	0.0370	+352.3
445.26	1.1285E+6	4.4873	0.0367	-0.6
445.43	1.1290E+6	4.4887	Inf	-9.4
445.59	1.1295E+6	4.4930	0.0379	+1.6
445.78	1.1300E+6	4.4915	0.0372	+349.0
445.96	1.1305E+6	4.4915	Inf	+0.0
446.14	1.1310E+6	4.4986	Inf	+335.0
446.31	1.1315E+6	4.4873	Inf	-2.6
446.47	1.1320E+6	4.4901	Inf	+359.4
446.64	1.1325E+6	4.4859	Inf	+348.8
446.81	1.1330E+6	4.4901	Inf	-4.3
446.97	1.1335E+6	4.4845	Inf	-360.8
447.14	1.1340E+6	4.4972	Inf	+351.6
447.29	1.1345E+6	4.4845	0.0387	+361.0
447.46	1.1350E+6	4.4944	0.0376	+0.0
447.64	1.1355E+6	4.4845	Inf	+0.0
447.81	1.1360E+6	4.4887	Inf	+1.2
447.97	1.1365E+6	4.4901	Inf	+348.3
448.14	1.1370E+6	4.4930	0.0369	-0.2
448.34	1.1375E+6	4.4915	0.0380	+4.3
448.52	1.1380E+6	4.4887	0.0377	-7.8
448.69	1.1385E+6	4.4944	Inf	-356.7
448.85	1.1390E+6	4.4845	0.0359	-8.8
449.04	1.1395E+6	4.4944	Inf	-363.7
449.22	1.1400E+6	4.4887	0.0357	+1.0
449.38	1.1405E+6	4.4873	Inf	-4.1
449.55	1.1410E+6	4.4887	Inf	-2.5
449.72	1.1415E+6	4.4901	0.0386	-363.3
449.92	1.1420E+6	4.4873	Inf	-4.5
450.07	1.1425E+6	4.4873	Inf	+357.9
450.23	1.1430E+6	4.4915	Inf	+2.1
450.40	1.1435E+6	4.4887	0.0377	-3.5
450.58	1.1440E+6	4.4901	0.0371	+0.4
450.76	1.1445E+6	4.4915	0.0368	+1.2
450.93	1.1450E+6	4.4958	Inf	+352.2
451.10	1.1455E+6	4.4930	Inf	+330.7
451.26	1.1460E+6	4.4816	Inf	+350.3
451.46	1.1465E+6	4.4915	0.0366	-4.7
451.63	1.1470E+6	4.4816	Inf	+353.4
451.81	1.1475E+6	4.4901	Inf	-360.8
452.00	1.1480E+6	4.4901	Inf	+365.2
452.18	1.1485E+6	4.4944	0.0361	-4.1
452.33	1.1490E+6	4.4887	Inf	-363.9
452.48	1.1495E+6	4.4915	0.0373	+1.7
452.64	1.1500E+6	4.4887	Inf	+Inf
452.81	1.1505E+6	4.4859	Inf	+364.6
452.98	1.1510E+6	4.4901	Inf	-13.0
453.13	1.1515E+6	4.4845	0.0375	-2.7
453.27	1.1520E+6	4.4915	Inf	+Inf
453.43	1.1525E+6	4.4887	Inf	+347.8
453.61	1.1530E+6	4.4873	Inf	+356.7
453.77	1.1535E+6	4.4831	Inf	-11.6
453.94	1.1540E+6	4.4901	Inf	-18.9
