#date: 15.10.2020	time: 15:10:16
#t (s)	f (Hz)	A1 (V)	A2 (V)	phase (deg)
38.15	1.0000E+1	1.5234	0.0006	+51.9
38.39	5.1000E+2	2.3692	Inf	+Inf
38.60	1.0100E+3	2.3673	Inf	+Inf
38.86	1.5100E+3	2.3798	Inf	+Inf
39.22	2.0100E+3	2.3989	Inf	+Inf
39.43	2.5100E+3	2.4201	Inf	+Inf
39.65	3.0100E+3	2.4489	Inf	+Inf
40.00	3.5100E+3	2.4814	Inf	+Inf
40.25	4.0100E+3	2.5157	0.1836	+119.0
40.53	4.5100E+3	2.5545	Inf	+Inf
40.75	5.0100E+3	2.5952	Inf	+Inf
41.10	5.5100E+3	2.6354	Inf	+Inf
41.33	6.0100E+3	2.6787	0.2633	+130.4
41.56	6.5100E+3	2.7236	0.2851	+134.3
41.78	7.0100E+3	2.7720	0.3019	+134.2
42.00	7.5100E+3	2.8232	0.3196	+136.2
42.21	8.0100E+3	2.8757	0.3352	+139.9
42.43	8.5100E+3	2.9278	0.3509	+140.0
42.66	9.0100E+3	2.9773	0.3675	+144.1
42.88	9.5100E+3	3.0220	0.3823	+145.5
43.11	1.0010E+4	3.0667	0.3974	+146.6
43.33	1.0510E+4	3.1067	0.4114	+150.0
43.54	1.1010E+4	3.1445	0.4228	+152.2
43.76	1.1510E+4	3.1851	0.4341	+153.8
43.99	1.2010E+4	3.2284	0.4455	+153.4
44.22	1.2510E+4	3.2685	0.4565	+155.3
44.46	1.3010E+4	3.3078	0.4668	+157.0
44.69	1.3510E+4	3.3445	0.4759	+159.4
44.92	1.4010E+4	3.3797	0.4858	+162.3
45.14	1.4510E+4	3.4149	0.4964	+162.7
45.37	1.5010E+4	3.4490	0.5063	+163.5
45.60	1.5510E+4	3.4807	0.5149	+163.7
45.84	1.6010E+4	3.5085	0.5218	+164.0
46.05	1.6510E+4	3.5378	0.5292	+165.7
46.27	1.7010E+4	3.5657	0.5343	+166.9
46.50	1.7510E+4	3.5886	0.5395	+167.6
46.74	1.8010E+4	3.6091	0.5431	+170.5
46.95	1.8510E+4	3.6236	0.5476	+169.7
47.17	1.9010E+4	3.6478	0.5515	+172.3
47.40	1.9510E+4	3.6699	0.5568	+169.7
47.63	2.0010E+4	3.6944	0.5619	+173.0
47.85	2.0510E+4	3.7151	0.5663	+174.6
48.05	2.1010E+4	3.7397	0.5711	+175.6
48.28	2.1510E+4	3.7569	0.5718	+176.9
48.50	2.2010E+4	3.7786	0.5749	+175.7
48.73	2.2510E+4	3.7976	0.5791	+175.4
48.93	2.3010E+4	3.8127	0.5828	+178.2
49.15	2.3510E+4	3.8325	0.5861	-179.8
49.36	2.4010E+4	3.8488	0.5877	+179.1
49.60	2.4510E+4	3.8676	0.5910	-178.9
49.83	2.5010E+4	3.8824	0.5930	-178.4
50.03	2.5510E+4	3.8970	0.5950	-176.2
50.24	2.6010E+4	3.9144	0.5967	-177.3
50.44	2.6510E+4	3.9247	0.5981	-176.4
50.66	2.7010E+4	3.9394	0.5995	-175.7
50.86	2.7510E+4	3.9520	0.6006	-174.1
51.06	2.8010E+4	3.9656	0.6022	-174.9
51.26	2.8510E+4	3.9755	0.6032	-175.1
51.46	2.9010E+4	3.9956	0.6047	-174.5
51.68	2.9510E+4	4.0051	0.6056	-174.2
51.89	3.0010E+4	4.0174	0.6060	-172.8
52.08	3.0510E+4	4.0265	0.6064	-169.6
52.26	3.1010E+4	4.0363	0.6075	-172.7
52.49	3.1510E+4	4.0504	0.6077	-173.1
52.67	3.2010E+4	4.0603	0.6070	-168.4
52.89	3.2510E+4	4.0710	0.6083	-170.2
53.07	3.3010E+4	4.0780	0.6075	-171.0
53.26	3.3510E+4	4.0857	0.6084	-170.0
53.44	3.4010E+4	4.0960	0.6081	-167.0
53.66	3.4510E+4	4.1053	0.6087	-168.6
53.84	3.5010E+4	4.1134	0.6080	-166.0
54.02	3.5510E+4	4.1199	0.6075	-166.9
54.24	3.6010E+4	4.1288	0.6081	-164.8
54.42	3.6510E+4	4.1357	0.6071	-166.3
54.60	3.7010E+4	4.1428	0.6063	-164.4
54.80	3.7510E+4	4.1483	0.6066	-164.9
55.00	3.8010E+4	4.1544	0.6057	-162.4
55.19	3.8510E+4	4.1620	0.6056	-163.4
55.37	3.9010E+4	4.1698	0.6054	-163.3
55.55	3.9510E+4	4.1783	0.6046	-162.1
55.75	4.0010E+4	4.1820	0.6034	-163.2
55.95	4.0510E+4	4.1902	0.6033	-161.8
56.13	4.1010E+4	4.1939	0.6023	-159.9
56.33	4.1510E+4	4.1967	0.6006	-160.0
56.55	4.2010E+4	4.2050	0.5999	-158.2
56.75	4.2510E+4	4.2131	0.5998	-161.7
56.95	4.3010E+4	4.2173	0.5986	-160.2
57.15	4.3510E+4	4.2196	0.5974	-160.7
57.35	4.4010E+4	4.2224	0.5965	-158.6
57.53	4.4510E+4	4.2295	0.5954	-156.1
57.76	4.5010E+4	4.2299	0.5948	-158.6
57.95	4.5510E+4	4.2370	0.5931	-155.6
58.15	4.6010E+4	4.2387	0.5926	-159.3
58.34	4.6510E+4	4.2450	0.5909	-156.2
58.53	4.7010E+4	4.2482	0.5910	-157.1
58.71	4.7510E+4	4.2520	0.5894	-156.4
58.91	4.8010E+4	4.2559	0.5889	-156.4
59.09	4.8510E+4	4.2599	0.5870	-155.7
59.31	4.9010E+4	4.2639	0.5868	-154.5
59.51	4.9510E+4	4.2667	0.5852	-155.4
59.69	5.0010E+4	4.2729	0.5838	-153.0
59.89	5.0510E+4	4.2706	0.5817	-152.7
60.07	5.1010E+4	4.2769	0.5812	-154.7
60.27	5.1510E+4	4.2815	0.5805	-153.3
60.46	5.2010E+4	4.2853	0.5781	-151.6
60.69	5.2510E+4	4.2902	0.5770	-152.8
60.87	5.3010E+4	4.2914	0.5771	-153.0
61.06	5.3510E+4	4.2945	0.5750	-151.5
61.27	5.4010E+4	4.2962	0.5733	-149.6
61.45	5.4510E+4	4.3003	0.5723	-151.3
61.67	5.5010E+4	4.3063	0.5705	-151.6
61.85	5.5510E+4	4.3076	0.5689	-149.0
62.05	5.6010E+4	4.3070	0.5677	-148.6
62.24	5.6510E+4	4.3115	0.5660	-149.3
62.44	5.7010E+4	4.3165	0.5691	-147.6
62.67	5.7510E+4	4.3156	0.5636	-150.8
62.87	5.8010E+4	4.3214	0.5657	-150.8
63.09	5.8510E+4	4.3220	0.5648	-147.6
63.27	5.9010E+4	4.3265	0.5631	-146.6
63.47	5.9510E+4	4.3266	0.5617	-148.4
63.65	6.0010E+4	4.3296	0.5613	-147.8
63.85	6.0510E+4	4.3286	0.5592	-145.1
64.05	6.1010E+4	4.3323	0.5572	-148.0
64.27	6.1510E+4	4.3358	0.5555	-147.3
64.48	6.2010E+4	4.3389	0.5554	-146.1
64.68	6.2510E+4	4.3394	0.5535	-144.4
64.86	6.3010E+4	4.3435	0.5518	-144.3
65.10	6.3510E+4	4.3447	0.5510	-143.0
65.28	6.4010E+4	4.3432	0.5500	-142.7
65.48	6.4510E+4	4.3473	0.5474	-145.7
65.66	6.5010E+4	4.3493	0.5470	-142.8
65.86	6.5510E+4	4.3534	0.5452	-143.4
66.05	6.6010E+4	4.3534	0.5436	-143.8
66.26	6.6510E+4	4.3579	0.5421	-142.8
66.44	6.7010E+4	4.3586	0.5405	-144.3
66.64	6.7510E+4	4.3624	0.5397	-142.3
66.83	6.8010E+4	4.3638	0.5387	-140.7
67.03	6.8510E+4	4.3643	0.5375	-144.5
67.22	6.9010E+4	4.3658	0.5357	-140.1
67.42	6.9510E+4	4.3675	0.5351	-141.4
67.61	7.0010E+4	4.3727	0.5341	-143.2
67.81	7.0510E+4	4.3723	0.5327	-139.3
68.02	7.1010E+4	4.3703	0.5315	-140.8
68.21	7.1510E+4	4.3688	0.5295	-137.2
68.44	7.2010E+4	4.3785	0.5292	-138.9
68.64	7.2510E+4	4.3794	0.5274	-141.1
68.84	7.3010E+4	4.3783	0.5271	-140.3
69.02	7.3510E+4	4.3801	0.5251	-139.6
69.20	7.4010E+4	4.3811	0.5245	-142.8
69.40	7.4510E+4	4.3825	0.5227	-138.1
69.59	7.5010E+4	4.3845	0.5214	-140.2
69.80	7.5510E+4	4.3859	0.5214	-141.4
69.99	7.6010E+4	4.3859	0.5193	-139.5
70.17	7.6510E+4	4.3860	0.5177	-134.6
70.37	7.7010E+4	4.3880	0.5162	-138.1
70.57	7.7510E+4	4.3921	0.5158	-139.4
70.77	7.8010E+4	4.3940	0.5143	-138.1
70.95	7.8510E+4	4.3927	0.5128	-137.4
71.15	7.9010E+4	4.4007	0.5117	-137.3
71.35	7.9510E+4	4.3927	0.5104	-137.3
71.58	8.0010E+4	4.4022	0.5100	-136.5
71.78	8.0510E+4	4.3969	0.5081	-134.8
71.98	8.1010E+4	4.4043	0.5059	-136.1
72.20	8.1510E+4	4.4024	0.5054	-136.5
72.38	8.2010E+4	4.4007	0.5036	-136.2
72.58	8.2510E+4	4.4019	0.5019	-135.4
72.78	8.3010E+4	4.4061	0.5002	-136.6
72.96	8.3510E+4	4.4064	0.4991	-135.0
73.16	8.4010E+4	4.4039	0.4978	-135.8
73.35	8.4510E+4	4.4092	0.4971	-133.5
73.53	8.5010E+4	4.4128	0.4947	-134.4
73.73	8.5510E+4	4.4131	0.4938	-134.5
73.91	8.6010E+4	4.4095	0.4924	-133.2
74.11	8.6510E+4	4.4126	0.4912	-134.5
74.29	8.7010E+4	4.4131	0.4895	-132.6
74.49	8.7510E+4	4.4146	0.4882	-134.5
74.68	8.8010E+4	4.4198	0.4871	-132.4
74.88	8.8510E+4	4.4163	0.4851	-133.2
75.08	8.9010E+4	4.4200	0.4838	-130.9
75.26	8.9510E+4	4.4196	0.4820	-134.1
75.46	9.0010E+4	4.4232	0.4810	-133.8
75.64	9.0510E+4	4.4204	0.4794	-132.9
75.84	9.1010E+4	4.4259	0.4793	-130.9
76.02	9.1510E+4	4.4259	0.4766	-131.5
76.22	9.2010E+4	4.4271	0.4746	-132.4
76.42	9.2510E+4	4.4254	0.4738	-131.6
76.66	9.3010E+4	4.4269	0.4722	-131.2
76.87	9.3510E+4	4.4290	0.4716	-130.5
77.06	9.4010E+4	4.4283	0.4694	-132.1
77.27	9.4510E+4	4.4299	0.4685	-129.5
77.45	9.5010E+4	4.4273	0.4681	-129.5
77.65	9.5510E+4	4.4297	0.4660	-130.8
77.84	9.6010E+4	4.4355	0.4653	-130.1
78.04	9.6510E+4	4.4343	0.4641	-127.8
78.22	9.7010E+4	4.4314	0.4634	-131.4
78.40	9.7510E+4	4.4355	0.4624	-130.1
78.60	9.8010E+4	4.4323	0.4605	-129.2
78.78	9.8510E+4	4.4348	0.4602	-128.4
78.98	9.9010E+4	4.4367	0.4592	-130.4
79.19	9.9510E+4	4.4368	0.4576	-127.5
79.37	1.0001E+5	4.4353	0.4566	-128.1
79.57	1.0051E+5	4.4408	0.4554	-129.3
79.75	1.0101E+5	4.4391	0.4545	-130.7
79.93	1.0151E+5	4.4435	0.4534	-127.9
80.15	1.0201E+5	4.4450	0.4523	-126.4
80.33	1.0251E+5	4.4453	0.4516	-127.9
80.51	1.0301E+5	4.4477	0.4494	-126.3
80.73	1.0351E+5	4.4449	0.4490	-127.3
80.91	1.0401E+5	4.4463	0.4488	-125.5
81.10	1.0451E+5	4.4500	0.4468	-127.2
81.30	1.0501E+5	4.4469	0.4464	-127.1
81.48	1.0551E+5	4.4460	0.4453	-126.9
81.68	1.0601E+5	4.4511	0.4443	-127.5
81.86	1.0651E+5	4.4515	0.4431	-128.7
82.05	1.0701E+5	4.4500	0.4427	-128.5
82.23	1.0751E+5	4.4549	0.4417	-129.4
82.44	1.0801E+5	4.4522	0.4402	-127.4
82.66	1.0851E+5	4.4536	0.4392	-127.9
82.88	1.0901E+5	4.4538	0.4386	-126.3
83.06	1.0951E+5	4.4549	0.4374	-126.5
83.28	1.1001E+5	4.4502	0.4366	-127.7
83.49	1.1051E+5	4.4582	0.4355	-126.0
83.69	1.1101E+5	4.4495	0.4350	-125.7
83.89	1.1151E+5	4.4603	0.4344	-125.5
84.09	1.1201E+5	4.4549	0.4328	-125.8
84.29	1.1251E+5	4.4570	0.4323	-124.6
84.47	1.1301E+5	4.4558	0.4307	-123.5
84.67	1.1351E+5	4.4562	0.4306	-125.1
84.86	1.1401E+5	4.4563	0.4301	-124.2
85.04	1.1451E+5	4.4577	0.4287	-126.3
85.22	1.1501E+5	4.4582	0.4271	-123.6
85.44	1.1551E+5	4.4566	0.4272	-124.2
85.62	1.1601E+5	4.4641	0.4260	-123.1
85.80	1.1651E+5	4.4607	0.4253	-124.0
86.00	1.1701E+5	4.4642	0.4242	-122.8
86.19	1.1751E+5	4.4637	0.4241	-124.3
86.37	1.1801E+5	4.4635	0.4226	-125.0
86.57	1.1851E+5	4.4642	0.4217	-123.8
86.75	1.1901E+5	4.4644	0.4208	-123.2
86.93	1.1951E+5	4.4652	0.4192	-121.9
87.13	1.2001E+5	4.4659	0.4193	-122.1
87.32	1.2051E+5	4.4614	0.4180	-123.5
87.50	1.2101E+5	4.4635	0.4176	-122.3
87.68	1.2151E+5	4.4667	0.4162	-122.6
87.88	1.2201E+5	4.4652	0.4160	-121.3
88.06	1.2251E+5	4.4654	0.4156	-123.0
88.25	1.2301E+5	4.4717	0.4143	-124.5
88.46	1.2351E+5	4.4716	0.4144	-122.7
88.66	1.2401E+5	4.4709	0.4124	-122.6
88.86	1.2451E+5	4.4716	0.4120	-121.3
89.05	1.2501E+5	4.4716	0.4113	-121.7
89.26	1.2551E+5	4.4716	0.4113	-123.4
89.44	1.2601E+5	4.4737	0.4099	-120.1
89.63	1.2651E+5	4.4719	0.4097	-122.4
89.81	1.2701E+5	4.4689	0.4088	-119.8
89.99	1.2751E+5	4.4764	0.4072	-121.4
90.21	1.2801E+5	4.4712	0.4069	-120.6
90.39	1.2851E+5	4.4792	0.4066	-121.5
90.58	1.2901E+5	4.4768	0.4047	-120.3
90.79	1.2951E+5	4.4781	0.4053	-120.8
90.97	1.3001E+5	4.4833	0.4037	-119.2
91.17	1.3051E+5	4.4720	0.4033	-121.7
91.37	1.3101E+5	4.4757	0.4027	-118.7
91.58	1.3151E+5	4.4814	0.4023	-121.0
91.76	1.3201E+5	4.4816	0.4015	-119.1
91.94	1.3251E+5	4.4794	0.4013	-120.9
92.12	1.3301E+5	4.4804	0.4002	-119.3
92.31	1.3351E+5	4.4805	0.3992	-120.9
92.50	1.3401E+5	4.4833	0.3994	-121.2
92.70	1.3451E+5	4.4743	0.3977	-120.2
92.92	1.3501E+5	4.4819	0.3973	-119.7
93.12	1.3551E+5	4.4852	0.3972	-120.6
93.32	1.3601E+5	4.4777	0.3962	-119.0
93.54	1.3651E+5	4.4798	0.3950	-119.6
93.72	1.3701E+5	4.4863	0.3947	-117.2
93.92	1.3751E+5	4.4831	0.3937	-119.6
94.15	1.3801E+5	4.4869	0.3940	-118.6
94.35	1.3851E+5	4.4839	0.3920	-118.7
94.53	1.3901E+5	4.4823	0.3917	-120.8
94.75	1.3951E+5	4.4880	0.3917	-118.2
94.95	1.4001E+5	4.4829	0.3910	-118.7
95.15	1.4051E+5	4.4862	0.3903	-119.7
95.35	1.4101E+5	4.4869	0.3892	-119.2
95.53	1.4151E+5	4.4825	0.3881	-121.1
95.77	1.4201E+5	4.4898	0.3884	-119.7
95.97	1.4251E+5	4.4846	0.3876	-118.6
96.15	1.4301E+5	4.4869	0.3876	-118.5
96.33	1.4351E+5	4.4867	0.3861	-118.0
96.51	1.4401E+5	4.4845	0.3854	-117.2
96.71	1.4451E+5	4.4840	0.3853	-117.7
96.90	1.4501E+5	4.4857	0.3848	-117.8
97.08	1.4551E+5	4.4887	0.3843	-117.8
97.26	1.4601E+5	4.4872	0.3830	-117.0
97.46	1.4651E+5	4.4879	0.3826	-118.8
97.64	1.4701E+5	4.4876	0.3820	-116.8
97.83	1.4751E+5	4.4880	0.3810	-117.7
98.01	1.4801E+5	4.4857	0.3807	-117.1
98.19	1.4851E+5	4.4853	0.3809	-118.9
98.38	1.4901E+5	4.4874	0.3796	-117.4
98.59	1.4951E+5	4.4897	0.3789	-117.3
98.78	1.5001E+5	4.4879	0.3780	-115.9
98.96	1.5051E+5	4.4883	0.3778	-114.6
99.14	1.5101E+5	4.4955	0.3772	-115.6
99.34	1.5151E+5	4.4906	0.3769	-116.4
99.52	1.5201E+5	4.4952	0.3770	-116.5
99.71	1.5251E+5	4.4921	0.3754	-116.0
99.89	1.5301E+5	4.4924	0.3751	-116.1
100.07	1.5351E+5	4.4911	0.3738	-115.4
100.27	1.5401E+5	4.4948	0.3741	-115.9
100.46	1.5451E+5	4.4983	0.3733	-115.7
100.64	1.5501E+5	4.4964	0.3721	-114.7
100.82	1.5551E+5	4.4947	0.3716	-115.4
101.02	1.5601E+5	4.4961	0.3715	-115.2
101.20	1.5651E+5	4.4978	0.3705	-115.6
101.39	1.5701E+5	4.5003	0.3707	-113.6
101.57	1.5751E+5	4.4973	0.3700	-115.0
101.75	1.5801E+5	4.4992	0.3686	-114.6
101.95	1.5851E+5	4.4962	0.3676	-115.4
102.14	1.5901E+5	4.4988	0.3680	-114.7
102.32	1.5951E+5	4.4966	0.3667	-114.0
102.50	1.6001E+5	4.4983	0.3658	-113.1
102.70	1.6051E+5	4.4995	0.3642	-113.9
102.90	1.6101E+5	4.4999	0.3661	-113.3
103.08	1.6151E+5	4.4965	0.3650	-113.5
103.27	1.6201E+5	4.5023	0.3653	-115.1
103.45	1.6251E+5	4.4972	0.3644	-113.6
103.63	1.6301E+5	4.5021	0.3632	-114.0
103.83	1.6351E+5	4.4986	0.3624	-113.5
104.02	1.6401E+5	4.5023	0.3627	-115.0
104.20	1.6451E+5	4.5000	0.3617	-114.6
104.38	1.6501E+5	4.5050	0.3632	-113.9
104.56	1.6551E+5	4.5084	0.3626	-116.4
104.75	1.6601E+5	4.5047	0.3607	-113.9
104.93	1.6651E+5	4.5033	0.3599	-114.5
105.13	1.6701E+5	4.5017	0.3602	-112.3
105.31	1.6751E+5	4.5037	0.3591	-112.6
105.49	1.6801E+5	4.5012	0.3592	-112.7
105.68	1.6851E+5	4.5024	0.3584	-113.6
105.86	1.6901E+5	4.5082	0.3579	-112.2
106.04	1.6951E+5	4.5020	0.3582	-114.6
106.23	1.7001E+5	4.5048	0.3569	-113.5
106.42	1.7051E+5	4.5046	0.3571	-113.0
106.61	1.7101E+5	4.5081	0.3562	-113.8
106.79	1.7151E+5	4.5092	0.3557	-113.9
106.97	1.7201E+5	4.5061	0.3553	-115.4
107.16	1.7251E+5	4.5105	0.3556	-114.1
107.34	1.7301E+5	4.5044	0.3545	-110.4
107.54	1.7351E+5	4.5030	0.3545	-111.9
107.72	1.7401E+5	4.5060	0.3540	-112.8
107.91	1.7451E+5	4.5064	0.3532	-111.8
108.09	1.7501E+5	4.5087	0.3528	-111.9
108.27	1.7551E+5	4.5094	0.3524	-113.7
108.45	1.7601E+5	4.5109	0.3524	-112.9
108.64	1.7651E+5	4.5082	0.3516	-110.3
108.86	1.7701E+5	4.5120	0.3510	-109.1
109.05	1.7751E+5	4.5099	0.3515	-111.1
109.25	1.7801E+5	4.5132	0.3504	-111.0
109.45	1.7851E+5	4.5099	0.3503	-110.8
109.65	1.7901E+5	4.5077	0.3501	-115.4
109.84	1.7951E+5	4.5061	0.3498	-114.1
110.02	1.8001E+5	4.5095	0.3488	-109.3
110.22	1.8051E+5	4.5082	0.3483	-111.9
110.40	1.8101E+5	4.5089	0.3492	-111.2
110.58	1.8151E+5	4.5150	0.3489	-112.2
110.78	1.8201E+5	4.5128	0.3472	-110.9
110.97	1.8251E+5	4.5113	0.3466	-111.6
111.17	1.8301E+5	4.5092	0.3469	-111.5
111.35	1.8351E+5	4.5108	0.3468	-111.8
111.53	1.8401E+5	4.5150	0.3466	-111.4
111.73	1.8451E+5	4.5099	0.3447	-113.7
111.96	1.8501E+5	4.5132	0.3454	-109.3
112.16	1.8551E+5	4.5184	0.3452	-110.8
112.35	1.8601E+5	4.5113	0.3451	-114.4
112.55	1.8651E+5	4.5147	0.3440	-111.0
112.75	1.8701E+5	4.5099	0.3458	-110.1
112.96	1.8751E+5	4.5159	0.3428	-111.5
113.18	1.8801E+5	4.5156	0.3436	-112.4
113.36	1.8851E+5	4.5142	0.3433	-110.6
113.54	1.8901E+5	4.5128	0.3433	-112.8
113.73	1.8951E+5	4.5128	0.3425	-109.6
113.91	1.9001E+5	4.5156	0.3420	-107.8
114.09	1.9051E+5	4.5170	0.3425	-110.5
114.28	1.9101E+5	4.5170	0.3417	-111.9
114.46	1.9151E+5	4.5156	0.3413	-110.3
114.64	1.9201E+5	4.5142	0.3411	-109.7
114.82	1.9251E+5	4.5156	0.3410	-109.1
115.01	1.9301E+5	4.5184	0.3404	-109.1
115.21	1.9351E+5	4.5142	0.3389	-110.5
115.39	1.9401E+5	4.5142	0.3402	-107.3
115.57	1.9451E+5	4.5198	0.3399	-112.4
115.76	1.9501E+5	4.5128	0.3404	-108.4
115.94	1.9551E+5	4.5128	0.3390	-108.5
116.12	1.9601E+5	4.5170	0.3385	-108.6
116.30	1.9651E+5	4.5142	0.3391	-107.4
116.49	1.9701E+5	4.5198	0.3393	-110.4
116.67	1.9751E+5	4.5128	0.3378	-108.9
116.87	1.9801E+5	4.5170	0.3363	-107.5
117.05	1.9851E+5	4.5170	0.3369	-110.2
117.24	1.9901E+5	4.5184	0.3378	-112.3
117.42	1.9951E+5	4.5170	0.3389	-109.0
117.62	2.0001E+5	4.5170	0.3363	-108.1
117.82	2.0051E+5	4.5198	0.3353	-107.4
118.00	2.0101E+5	4.5184	0.3350	-108.3
118.22	2.0151E+5	4.5142	0.3353	-109.4
118.42	2.0201E+5	4.5184	0.3354	-110.4
118.60	2.0251E+5	4.5198	0.3360	-108.8
118.78	2.0301E+5	4.5241	0.3357	-106.1
118.98	2.0351E+5	4.5156	0.3357	-111.9
119.17	2.0401E+5	4.5170	0.3349	-109.5
119.36	2.0451E+5	4.5184	0.3353	-108.3
119.56	2.0501E+5	4.5198	0.3340	-107.8
119.76	2.0551E+5	4.5184	0.3337	-107.5
119.95	2.0601E+5	4.5212	0.3334	-107.6
120.13	2.0651E+5	4.5170	0.3336	-107.0
120.31	2.0701E+5	4.5198	0.3343	-112.7
120.50	2.0751E+5	4.5241	0.3336	-108.8
120.68	2.0801E+5	4.5241	0.3335	-109.0
120.86	2.0851E+5	4.5212	0.3331	-107.9
121.05	2.0901E+5	4.5227	0.3326	-108.6
121.23	2.0951E+5	4.5227	0.3330	-107.2
121.41	2.1001E+5	4.5227	0.3329	-108.1
121.59	2.1051E+5	4.5212	0.3323	-111.3
121.79	2.1101E+5	4.5227	0.3331	-110.6
121.99	2.1151E+5	4.5269	0.3318	-106.4
122.19	2.1201E+5	4.5227	0.3322	-109.5
122.38	2.1251E+5	4.5227	0.3310	-110.8
122.56	2.1301E+5	4.5212	0.3319	-110.0
122.74	2.1351E+5	4.5283	0.3324	-106.1
122.94	2.1401E+5	4.5269	0.3314	-110.3
123.14	2.1451E+5	4.5255	0.3312	-106.3
123.32	2.1501E+5	4.5198	0.3313	-106.6
123.51	2.1551E+5	4.5212	0.3311	-106.2
123.69	2.1601E+5	4.5198	0.3306	-107.1
123.87	2.1651E+5	4.5212	0.3319	-108.8
124.06	2.1701E+5	4.5269	0.3317	-109.4
124.24	2.1751E+5	4.5227	0.3311	-109.4
124.42	2.1801E+5	4.5255	0.3312	-108.5
124.60	2.1851E+5	4.5269	0.3305	-106.9
124.79	2.1901E+5	4.5255	0.3313	-105.9
124.97	2.1951E+5	4.5227	0.3300	-104.9
125.15	2.2001E+5	4.5212	0.3306	-111.2
125.34	2.2051E+5	4.5241	0.3296	-108.0
125.52	2.2101E+5	4.5269	0.3298	-108.2
125.70	2.2151E+5	4.5269	0.3299	-108.2
125.88	2.2201E+5	4.5269	0.3295	-104.4
126.08	2.2251E+5	4.5269	0.3300	-106.7
126.28	2.2301E+5	4.5227	0.3292	-104.9
126.48	2.2351E+5	4.5241	0.3306	-107.6
126.70	2.2401E+5	4.5255	0.3300	-107.6
126.88	2.2451E+5	4.5283	0.3284	-102.7
127.10	2.2501E+5	4.5283	0.3295	-106.3
127.30	2.2551E+5	4.5283	0.3290	-105.4
127.50	2.2601E+5	4.5269	0.3307	-108.0
127.70	2.2651E+5	4.5297	0.3288	-102.4
127.90	2.2701E+5	4.5283	0.3288	-103.2
128.08	2.2751E+5	4.5269	0.3285	-106.5
128.26	2.2801E+5	4.5269	0.3291	-108.5
128.45	2.2851E+5	4.5283	0.3298	-106.8
128.65	2.2901E+5	4.5269	0.3302	-110.0
128.83	2.2951E+5	4.5340	0.3292	-103.2
129.03	2.3001E+5	4.5241	0.3293	-105.6
129.21	2.3051E+5	4.5297	0.3293	-105.8
129.39	2.3101E+5	4.5283	0.3298	-106.7
129.59	2.3151E+5	4.5311	0.3309	-105.3
129.78	2.3201E+5	4.5283	0.3285	-104.0
129.98	2.3251E+5	4.5311	0.3297	-104.5
130.18	2.3301E+5	4.5297	0.3290	-105.9
130.37	2.3351E+5	4.5283	0.3295	-103.6
130.57	2.3401E+5	4.5297	0.3276	-102.5
130.77	2.3451E+5	4.5311	0.3298	-101.2
130.97	2.3501E+5	4.5297	0.3290	-106.5
131.17	2.3551E+5	4.5241	0.3294	-101.3
131.36	2.3601E+5	4.5326	0.3282	-102.2
131.54	2.3651E+5	4.5297	0.3288	-108.6
131.72	2.3701E+5	4.5283	0.3263	-103.2
131.92	2.3751E+5	4.5297	0.3295	-101.9
132.12	2.3801E+5	4.5255	0.3288	-104.6
132.30	2.3851E+5	4.5283	0.3291	-103.4
132.49	2.3901E+5	4.5311	0.3301	-105.3
132.69	2.3951E+5	4.5283	0.3280	-103.1
132.89	2.4001E+5	4.5283	0.3286	-106.3
133.07	2.4051E+5	4.5311	0.3282	-101.7
133.25	2.4101E+5	4.5340	0.3295	-105.9
133.44	2.4151E+5	4.5269	0.3281	-103.7
133.62	2.4201E+5	4.5354	0.3278	-102.4
133.80	2.4251E+5	4.5269	0.3298	-102.6
134.00	2.4301E+5	4.5311	0.3297	-103.8
134.18	2.4351E+5	4.5283	0.3297	-107.0
134.37	2.4401E+5	4.5326	0.3282	-105.1
134.57	2.4451E+5	4.5311	0.3290	-106.0
134.76	2.4501E+5	4.5354	0.3295	-102.7
134.97	2.4551E+5	4.5311	0.3284	-106.4
135.16	2.4601E+5	4.5311	0.3289	-102.4
135.35	2.4651E+5	4.5326	0.3294	-102.3
135.53	2.4701E+5	4.5297	0.3296	-101.6
135.73	2.4751E+5	4.5340	0.3285	-103.7
135.93	2.4801E+5	4.5326	0.3288	-100.3
136.11	2.4851E+5	4.5368	0.3291	-104.1
136.29	2.4901E+5	4.5326	0.3314	-106.7
136.50	2.4951E+5	4.5354	0.3305	-103.9
136.68	2.5001E+5	4.5340	0.3295	-101.5
136.86	2.5051E+5	4.5326	0.3311	-104.5
137.04	2.5101E+5	4.5340	0.3289	-104.5
137.24	2.5151E+5	4.5297	0.3319	-104.9
137.44	2.5201E+5	4.5326	0.3302	-99.8
137.63	2.5251E+5	4.5283	0.3294	-102.1
137.83	2.5301E+5	4.5311	0.3309	-100.1
138.04	2.5351E+5	4.5354	0.3305	-104.4
138.22	2.5401E+5	4.5340	0.3302	-102.9
138.41	2.5451E+5	4.5340	0.3298	-99.9
138.59	2.5501E+5	4.5297	0.3304	-102.5
138.77	2.5551E+5	4.5340	0.3334	-101.5
138.97	2.5601E+5	4.5311	0.3318	-101.4
139.17	2.5651E+5	4.5311	0.3313	-102.8
139.36	2.5701E+5	4.5297	0.3331	-104.3
139.56	2.5751E+5	4.5311	0.3310	-100.4
139.75	2.5801E+5	4.5354	0.3321	-101.6
139.94	2.5851E+5	4.5311	0.3326	-101.7
140.14	2.5901E+5	4.5354	0.3327	-100.6
140.32	2.5951E+5	4.5311	0.3310	-102.5
140.54	2.6001E+5	4.5326	0.3321	-103.6
140.72	2.6051E+5	4.5368	0.3338	-102.8
140.92	2.6101E+5	4.5326	0.3340	-101.2
141.10	2.6151E+5	4.5354	0.3331	-102.6
141.28	2.6201E+5	4.5354	0.3334	-104.9
141.47	2.6251E+5	4.5354	0.3327	-100.2
141.65	2.6301E+5	4.5368	0.3347	-100.5
141.83	2.6351E+5	4.5340	0.3321	-100.7
142.03	2.6401E+5	4.5382	0.3352	-104.1
142.23	2.6451E+5	4.5354	0.3352	-100.3
142.42	2.6501E+5	4.5340	0.3352	-105.4
142.60	2.6551E+5	4.5354	0.3347	-100.3
142.80	2.6601E+5	4.5326	0.3334	-97.3
142.98	2.6651E+5	4.5326	0.3331	-104.2
143.16	2.6701E+5	4.5382	0.3336	-102.4
143.35	2.6751E+5	4.5354	0.3391	-101.5
143.55	2.6801E+5	4.5340	0.3374	-100.8
143.75	2.6851E+5	4.5396	0.3357	-99.8
143.93	2.6901E+5	4.5326	0.3364	-100.3
144.11	2.6951E+5	4.5354	0.3359	-102.8
144.29	2.7001E+5	4.5340	0.3361	-102.9
144.48	2.7051E+5	4.5368	0.3376	-102.9
144.66	2.7101E+5	4.5326	0.3369	-101.4
144.84	2.7151E+5	4.5382	0.3375	-98.5
145.03	2.7201E+5	4.5368	0.3370	-101.2
145.21	2.7251E+5	4.5340	0.3396	-102.9
145.41	2.7301E+5	4.5368	0.3413	-100.2
145.61	2.7351E+5	4.5368	0.3386	-100.6
145.81	2.7401E+5	4.5354	0.3379	-98.2
146.01	2.7451E+5	4.5410	0.3389	-99.4
146.24	2.7501E+5	4.5354	0.3402	-100.1
146.44	2.7551E+5	4.5326	0.3424	-98.3
146.64	2.7601E+5	4.5340	0.3417	-100.0
146.82	2.7651E+5	4.5354	0.3423	-99.8
147.01	2.7701E+5	4.5340	0.3425	-99.7
147.19	2.7751E+5	4.5396	0.3430	-99.0
147.37	2.7801E+5	4.5340	0.3425	-100.2
147.56	2.7851E+5	4.5340	0.3432	-99.9
147.74	2.7901E+5	4.5368	0.3436	-99.5
147.92	2.7951E+5	4.5368	0.3450	-100.2
148.12	2.8001E+5	4.5340	0.3438	-99.0
148.30	2.8051E+5	4.5382	0.3453	-100.3
148.49	2.8101E+5	4.5326	0.3434	-100.1
148.69	2.8151E+5	4.5368	0.3456	-99.8
148.90	2.8201E+5	4.5354	0.3451	-101.4
149.09	2.8251E+5	4.5368	0.3446	-99.3
149.27	2.8301E+5	4.5368	0.3454	-101.2
149.45	2.8351E+5	4.5368	0.3460	-99.9
149.63	2.8401E+5	4.5340	0.3470	-99.6
149.83	2.8451E+5	4.5396	0.3467	-96.3
150.02	2.8501E+5	4.5439	0.3479	-100.1
150.22	2.8551E+5	4.5382	0.3483	-101.7
150.43	2.8601E+5	4.5326	0.3478	-99.6
150.62	2.8651E+5	4.5368	0.3485	-96.0
150.80	2.8701E+5	4.5368	0.3502	-99.4
151.00	2.8751E+5	4.5425	0.3500	-99.4
151.21	2.8801E+5	4.5255	0.3507	-102.1
151.41	2.8851E+5	4.5354	0.3507	-96.0
151.60	2.8901E+5	4.5340	0.3512	-99.0
151.78	2.8951E+5	4.5410	0.3520	-100.6
151.98	2.9001E+5	4.5396	0.3521	-97.4
152.18	2.9051E+5	4.5467	0.3525	-100.6
152.40	2.9101E+5	4.5382	0.3525	-100.6
152.59	2.9151E+5	4.5481	0.3535	-99.5
152.79	2.9201E+5	4.5396	0.3531	-101.0
152.99	2.9251E+5	4.5382	0.3541	-95.8
153.18	2.9301E+5	4.5396	0.3547	-98.1
153.36	2.9351E+5	4.5368	0.3560	-99.2
153.56	2.9401E+5	4.5425	0.3554	-96.3
153.76	2.9451E+5	4.5439	0.3565	-100.8
153.94	2.9501E+5	4.5439	0.3547	-97.4
154.14	2.9551E+5	4.5410	0.3549	-99.2
154.32	2.9601E+5	4.5396	0.3572	-96.9
154.54	2.9651E+5	4.5368	0.3589	-101.0
154.74	2.9701E+5	4.5297	0.3585	-98.3
154.92	2.9751E+5	4.5439	0.3586	-98.0
155.12	2.9801E+5	4.5467	0.3600	-101.0
155.31	2.9851E+5	4.5326	0.3598	-98.1
155.50	2.9901E+5	4.5396	0.3591	-102.3
155.69	2.9951E+5	4.5396	0.3601	-96.1
155.87	3.0001E+5	4.5453	0.3623	-98.7
156.10	3.0051E+5	4.5439	0.3619	-97.2
156.29	3.0101E+5	4.5481	0.3635	-97.8
156.47	3.0151E+5	4.5410	0.3642	-96.2
156.67	3.0201E+5	4.5340	0.3644	-102.3
156.87	3.0251E+5	4.5410	0.3647	-101.1
157.07	3.0301E+5	4.5467	0.3650	-101.0
157.25	3.0351E+5	4.5368	0.3674	-98.8
157.47	3.0401E+5	4.5410	0.3689	-101.5
157.67	3.0451E+5	4.5297	0.3685	-98.7
157.87	3.0501E+5	4.5439	0.3686	-98.9
158.06	3.0551E+5	4.5354	0.3701	-97.1
158.28	3.0601E+5	4.5396	0.3696	-93.5
158.47	3.0651E+5	4.5439	0.3686	-96.1
158.70	3.0701E+5	4.5354	0.3712	-96.0
158.91	3.0751E+5	4.5297	0.3717	-100.1
159.10	3.0801E+5	4.5453	0.3723	-96.9
159.33	3.0851E+5	4.5368	0.3729	-96.4
159.53	3.0901E+5	4.5326	0.3734	-95.9
159.71	3.0951E+5	4.5425	0.3752	-98.0
159.93	3.1001E+5	4.5354	0.3731	-99.7
160.15	3.1051E+5	4.5425	0.3780	-95.1
160.36	3.1101E+5	4.5467	0.3794	-95.7
160.54	3.1151E+5	4.5311	0.3828	-96.8
160.78	3.1201E+5	4.5382	0.3787	-96.8
160.98	3.1251E+5	4.5368	0.3806	-97.3
161.18	3.1301E+5	4.5495	0.3799	-96.6
161.39	3.1351E+5	4.5396	0.3801	-97.5
161.59	3.1401E+5	4.5439	0.3841	-97.0
161.81	3.1451E+5	4.5410	0.3828	-94.7
162.01	3.1501E+5	4.5481	0.3826	-94.4
162.19	3.1551E+5	4.5297	0.3863	-97.5
162.41	3.1601E+5	4.5368	0.3841	-95.6
162.61	3.1651E+5	4.5439	0.3849	-98.7
162.81	3.1701E+5	4.5368	0.3863	-100.6
163.02	3.1751E+5	4.5354	0.3898	-97.8
163.22	3.1801E+5	4.5382	0.3882	-95.4
163.42	3.1851E+5	4.5368	0.3878	-94.6
163.60	3.1901E+5	4.5425	0.3894	-95.0
163.82	3.1951E+5	4.5368	0.3923	-97.6
164.04	3.2001E+5	4.5311	0.3926	-96.2
164.20	3.2051E+5	4.5453	0.3918	-96.6
164.40	3.2101E+5	4.5340	0.3934	-96.2
164.58	3.2151E+5	4.5425	0.3944	-97.7
164.77	3.2201E+5	4.5453	0.3967	-94.6
164.95	3.2251E+5	4.5368	0.3956	-95.0
165.13	3.2301E+5	4.5524	0.3963	-97.2
165.33	3.2351E+5	4.5396	0.3981	-94.1
165.55	3.2401E+5	4.5439	0.3932	-94.9
165.77	3.2451E+5	4.5495	0.3959	-94.7
165.95	3.2501E+5	4.5410	0.4052	-95.7
166.13	3.2551E+5	4.5425	0.4037	-94.7
166.30	3.2601E+5	4.5453	0.4017	-96.0
166.48	3.2651E+5	4.5396	0.4022	-91.7
166.66	3.2701E+5	4.5396	0.4055	-93.6
166.84	3.2751E+5	4.5340	0.4033	-95.8
167.01	3.2801E+5	4.5382	0.4085	-95.4
167.19	3.2851E+5	4.5382	0.4057	-93.7
167.38	3.2901E+5	4.5410	0.4090	-96.9
167.59	3.2951E+5	4.5467	0.4061	-94.6
167.78	3.3001E+5	4.5439	0.4104	-94.5
167.96	3.3051E+5	4.5368	0.4128	-91.9
168.18	3.3101E+5	4.5467	0.4144	-94.2
168.39	3.3151E+5	4.5453	0.4160	-96.6
168.56	3.3201E+5	4.5425	0.4142	-96.5
168.74	3.3251E+5	4.5453	0.4171	-92.9
168.93	3.3301E+5	4.5354	0.4123	-97.0
169.14	3.3351E+5	4.5425	0.4165	-94.2
169.36	3.3401E+5	4.5410	0.4206	-96.0
169.54	3.3451E+5	4.5425	0.4223	-93.4
169.71	3.3501E+5	4.5326	0.4244	-93.5
169.92	3.3551E+5	4.5410	0.4192	-92.4
170.12	3.3601E+5	4.5410	0.4304	-95.0
170.31	3.3651E+5	4.5326	0.4232	-93.1
170.50	3.3701E+5	4.5326	0.4270	-93.9
170.69	3.3751E+5	4.5396	0.4279	-95.3
170.87	3.3801E+5	4.5396	0.4273	-95.6
171.06	3.3851E+5	4.5467	0.4213	-95.7
171.27	3.3901E+5	4.5439	0.4322	-94.0
171.47	3.3951E+5	4.5368	0.4308	-92.9
171.69	3.4001E+5	4.5396	0.4379	-92.6
171.89	3.4051E+5	4.5410	0.4304	-94.7
172.10	3.4101E+5	4.5425	0.4352	-94.5
172.30	3.4151E+5	4.5396	0.4349	-91.8
172.50	3.4201E+5	4.5467	0.4413	-93.4
172.72	3.4251E+5	4.5396	0.4423	-95.2
172.92	3.4301E+5	4.5382	0.4414	-94.2
173.10	3.4351E+5	4.5425	0.4449	-92.2
173.32	3.4401E+5	4.5368	0.4439	-93.5
173.52	3.4451E+5	4.5495	0.4450	-92.6
173.72	3.4501E+5	4.5396	0.4438	-91.6
173.91	3.4551E+5	4.5425	0.4519	-94.4
174.13	3.4601E+5	4.5509	0.4534	-93.8
174.30	3.4651E+5	4.5340	0.4550	-92.5
174.51	3.4701E+5	4.5382	0.4510	-90.5
174.70	3.4751E+5	4.5410	0.4555	-93.9
174.91	3.4801E+5	4.5410	0.4551	-94.6
175.08	3.4851E+5	4.5340	0.4530	-92.5
175.29	3.4901E+5	4.5368	0.4615	-91.4
175.48	3.4951E+5	4.5368	0.4562	-90.9
175.66	3.5001E+5	4.5396	0.4641	-90.9
175.84	3.5051E+5	4.5410	0.4654	-90.8
176.04	3.5101E+5	4.5425	0.4660	-91.8
176.21	3.5151E+5	4.5382	0.4656	-91.2
176.39	3.5201E+5	4.5396	0.4660	-93.1
176.56	3.5251E+5	4.5410	0.4769	-90.5
176.78	3.5301E+5	4.5439	0.4715	-92.0
176.96	3.5351E+5	4.5368	0.4767	-90.4
177.17	3.5401E+5	4.5495	0.4729	-92.1
177.39	3.5451E+5	4.5368	0.4794	-89.2
177.62	3.5501E+5	4.5467	0.4807	-92.8
177.84	3.5551E+5	4.5283	0.4906	-92.5
178.07	3.5601E+5	4.5425	0.4906	-88.4
178.27	3.5651E+5	4.5410	0.4903	-90.2
178.46	3.5701E+5	4.5354	0.4912	-89.7
178.67	3.5751E+5	4.5354	0.4871	-88.3
178.87	3.5801E+5	4.5382	0.4955	-88.9
179.07	3.5851E+5	4.5396	0.4991	-89.3
179.27	3.5901E+5	4.5410	0.5033	-89.7
179.49	3.5951E+5	4.5340	0.5118	-90.1
179.72	3.6001E+5	4.5311	0.5098	-89.5
179.92	3.6051E+5	4.5425	0.5087	-88.9
180.12	3.6101E+5	4.5368	0.5119	-89.1
180.34	3.6151E+5	4.5311	0.5131	-88.9
180.52	3.6201E+5	4.5326	0.5185	-87.6
180.72	3.6251E+5	4.5340	0.5169	-87.2
180.90	3.6301E+5	4.5354	0.5175	-89.1
181.08	3.6351E+5	4.5382	0.5237	-87.7
181.28	3.6401E+5	4.5354	0.5326	-87.6
181.48	3.6451E+5	4.5354	0.5261	-86.4
181.68	3.6501E+5	4.5354	0.5334	-89.1
181.88	3.6551E+5	4.5368	0.5306	-87.3
182.08	3.6601E+5	4.5340	0.5346	-86.6
182.28	3.6651E+5	4.5354	0.5375	-87.6
182.48	3.6701E+5	4.5396	0.5357	-86.8
182.68	3.6751E+5	4.5354	0.5395	-88.6
182.88	3.6801E+5	4.5311	0.5456	-87.4
183.08	3.6851E+5	4.5368	0.5612	-86.2
183.28	3.6901E+5	4.5297	0.5457	-87.6
183.48	3.6951E+5	4.5354	0.5498	-84.3
183.68	3.7001E+5	4.5340	0.5508	-88.0
183.88	3.7051E+5	4.5326	0.5599	-84.3
184.08	3.7101E+5	4.5283	0.5619	-86.1
184.28	3.7151E+5	4.5297	0.5603	-83.5
184.48	3.7201E+5	4.5354	0.5660	-83.5
184.68	3.7251E+5	4.5368	0.5698	-84.3
184.87	3.7301E+5	4.5269	0.5848	-84.6
185.08	3.7351E+5	4.5269	0.5890	-87.9
185.28	3.7401E+5	4.5297	0.5858	-85.6
185.47	3.7451E+5	4.5297	0.5834	-86.6
185.67	3.7501E+5	4.5340	0.5955	-83.9
185.87	3.7551E+5	4.5354	0.5875	-85.4
186.07	3.7601E+5	4.5311	0.6009	-84.2
186.27	3.7651E+5	4.5269	0.6083	-82.9
186.47	3.7701E+5	4.5269	0.6043	-85.4
186.67	3.7751E+5	4.5241	0.6064	-84.2
186.85	3.7801E+5	4.5212	0.6107	-85.8
187.05	3.7851E+5	4.5311	0.6138	-83.0
187.25	3.7901E+5	4.5241	0.6109	-79.8
187.45	3.7951E+5	4.5241	0.6275	-84.8
187.65	3.8001E+5	4.5297	0.6225	-82.8
187.85	3.8051E+5	4.5269	0.6306	-82.4
188.05	3.8101E+5	4.5241	0.6364	-82.7
188.25	3.8151E+5	4.5283	0.6319	-81.3
188.45	3.8201E+5	4.5283	0.6387	-84.2
188.65	3.8251E+5	4.5227	0.6443	-82.2
188.85	3.8301E+5	4.5212	0.6432	-79.8
189.05	3.8351E+5	4.5255	0.6541	-82.5
189.25	3.8401E+5	4.5297	0.6538	-81.5
189.43	3.8451E+5	4.5241	0.6536	-80.9
189.62	3.8501E+5	4.5198	0.6692	-82.0
189.81	3.8551E+5	4.5269	0.6660	-81.0
190.01	3.8601E+5	4.5283	0.6756	-78.3
190.21	3.8651E+5	4.5212	0.6723	-80.9
190.41	3.8701E+5	4.5241	0.6819	-79.2
190.61	3.8751E+5	4.5170	0.6855	-79.1
190.81	3.8801E+5	4.5255	0.6876	-79.1
191.01	3.8851E+5	4.5227	0.6955	-76.6
191.21	3.8901E+5	4.5241	0.7034	-78.4
191.41	3.8951E+5	4.5241	0.7037	-77.9
191.59	3.9001E+5	4.5269	0.7109	-77.9
191.79	3.9051E+5	4.5255	0.7220	-76.8
191.99	3.9101E+5	4.5241	0.7245	-78.6
192.19	3.9151E+5	4.5241	0.7302	-78.8
192.39	3.9201E+5	4.5311	0.7279	-75.4
192.59	3.9251E+5	4.5241	0.7358	-75.7
192.79	3.9301E+5	4.5198	0.7558	-75.8
192.99	3.9351E+5	4.5255	0.7570	-77.5
193.19	3.9401E+5	4.5283	0.7703	-74.9
193.39	3.9451E+5	4.5269	0.7658	-75.9
193.59	3.9501E+5	4.5241	0.7722	-73.8
193.79	3.9551E+5	4.5156	0.7635	-75.6
193.99	3.9601E+5	4.5241	0.7770	-73.1
194.21	3.9651E+5	4.5227	0.7836	-75.4
194.41	3.9701E+5	4.5212	0.7920	-72.1
194.62	3.9751E+5	4.5184	0.7975	-72.0
194.82	3.9801E+5	4.5227	0.8055	-72.9
195.02	3.9851E+5	4.5198	0.8122	-70.3
195.22	3.9901E+5	4.5128	0.8262	-71.9
195.42	3.9951E+5	4.5255	0.8293	-72.0
195.62	4.0001E+5	4.5227	0.8361	-70.8
195.82	4.0051E+5	4.5184	0.8265	-70.9
196.02	4.0101E+5	4.5227	0.8423	-70.6
196.22	4.0151E+5	4.5241	0.8531	-69.4
196.42	4.0201E+5	4.5255	0.8613	-69.2
196.62	4.0251E+5	4.5269	0.8688	-68.1
196.82	4.0301E+5	4.5255	0.8707	-68.0
197.02	4.0351E+5	4.5212	0.8775	-68.4
197.22	4.0401E+5	4.5255	0.8818	-65.9
197.41	4.0451E+5	4.5241	0.8932	-66.7
197.62	4.0501E+5	4.5212	0.8993	-65.8
197.81	4.0551E+5	4.5269	0.9076	-64.1
198.01	4.0601E+5	4.5227	0.9246	-66.2
198.21	4.0651E+5	4.5184	0.9170	-65.1
198.43	4.0701E+5	4.5255	0.9351	-63.6
198.63	4.0751E+5	4.5241	0.9259	-63.0
198.83	4.0801E+5	4.5255	0.9421	-63.0
199.03	4.0851E+5	4.5212	0.9619	-63.1
199.23	4.0901E+5	4.5283	0.9644	-59.4
199.43	4.0951E+5	4.5241	0.9578	-61.7
199.63	4.1001E+5	4.5297	0.9775	-59.9
199.83	4.1051E+5	4.5255	0.9822	-59.0
200.03	4.1101E+5	4.5297	0.9816	-59.4
200.21	4.1151E+5	4.5255	0.9993	-57.7
200.41	4.1201E+5	4.5269	1.0213	-55.4
200.61	4.1251E+5	4.5241	1.0256	-55.1
200.81	4.1301E+5	4.5241	1.0281	-53.9
200.99	4.1351E+5	4.5198	1.0421	-54.5
201.19	4.1401E+5	4.5269	1.0475	-54.4
201.39	4.1451E+5	4.5354	1.0694	-54.4
201.59	4.1501E+5	4.5283	1.0674	-52.6
201.79	4.1551E+5	4.5269	1.0666	-50.8
201.97	4.1601E+5	4.5311	1.0799	-51.9
202.17	4.1651E+5	4.5255	1.0902	-50.4
202.37	4.1701E+5	4.5227	1.1021	-50.0
202.57	4.1751E+5	4.5241	1.1086	-49.0
202.77	4.1801E+5	4.5198	1.1021	-47.2
202.97	4.1851E+5	4.5255	1.1114	-46.5
203.17	4.1901E+5	4.5283	1.1103	-47.9
203.35	4.1951E+5	4.5297	1.1239	-43.8
203.55	4.2001E+5	4.5255	1.1287	-44.2
203.75	4.2051E+5	4.5269	1.1390	-44.2
203.95	4.2101E+5	4.5297	1.1375	-42.8
204.15	4.2151E+5	4.5297	1.1589	-41.7
204.35	4.2201E+5	4.5255	1.1510	-41.0
204.55	4.2251E+5	4.5283	1.1707	-39.8
204.75	4.2301E+5	4.5255	1.1669	-38.5
204.95	4.2351E+5	4.5269	1.1737	-38.2
205.15	4.2401E+5	4.5283	1.1792	-37.0
205.35	4.2451E+5	4.5227	1.1780	-36.0
205.55	4.2501E+5	4.5255	1.1806	-31.9
205.75	4.2551E+5	4.5283	1.1949	-35.0
205.97	4.2601E+5	4.5255	1.1937	-30.2
206.15	4.2651E+5	4.5241	1.1862	-31.1
206.35	4.2701E+5	4.5283	1.1930	-30.0
206.55	4.2751E+5	4.5297	1.1956	-28.9
206.75	4.2801E+5	4.5297	1.1997	-29.6
206.95	4.2851E+5	4.5227	1.2062	-27.3
207.15	4.2901E+5	4.5269	1.2052	-25.7
207.33	4.2951E+5	4.5297	1.1940	-25.7
207.53	4.3001E+5	4.5255	1.1998	-22.6
207.73	4.3051E+5	4.5269	1.1995	-22.4
207.91	4.3101E+5	4.5255	1.1974	-22.2
208.11	4.3151E+5	4.5241	1.1868	-20.6
208.31	4.3201E+5	4.5326	1.1966	-18.9
208.51	4.3251E+5	4.5311	1.1800	-17.8
208.71	4.3301E+5	4.5283	1.1833	-14.9
208.91	4.3351E+5	4.5354	1.1858	-15.7
209.11	4.3401E+5	4.5283	1.1780	-14.7
209.31	4.3451E+5	4.5255	1.1737	-13.0
209.51	4.3501E+5	4.5297	1.1766	-10.6
209.71	4.3551E+5	4.5269	1.1601	-12.1
209.92	4.3601E+5	4.5340	1.1561	-10.3
210.12	4.3651E+5	4.5283	1.1448	-9.6
210.32	4.3701E+5	4.5311	1.1418	-8.7
210.52	4.3751E+5	4.5283	1.1431	-7.5
210.70	4.3801E+5	4.5297	1.1307	-6.8
210.90	4.3851E+5	4.5241	1.1342	-2.9
211.10	4.3901E+5	4.5311	1.1179	-2.5
211.30	4.3951E+5	4.5340	1.1051	-1.3
211.50	4.4001E+5	4.5311	1.1020	-1.5
211.70	4.4051E+5	4.5255	1.0932	+0.0
211.90	4.4101E+5	4.5255	1.0814	+0.0
212.10	4.4151E+5	4.5269	1.0782	-0.4
212.30	4.4201E+5	4.5354	1.0614	+2.7
212.50	4.4251E+5	4.5326	1.0629	+4.6
212.70	4.4301E+5	4.5297	1.0489	+4.4
212.90	4.4351E+5	4.5241	1.0495	+7.0
213.08	4.4401E+5	4.5410	1.0339	+6.2
213.30	4.4451E+5	4.5283	1.0345	+6.2
213.50	4.4501E+5	4.5283	1.0083	+8.7
213.70	4.4551E+5	4.5326	0.9915	+7.5
213.90	4.4601E+5	4.5297	0.9871	+7.5
214.10	4.4651E+5	4.5283	0.9805	+9.6
214.30	4.4701E+5	4.5311	0.9588	+9.5
214.51	4.4751E+5	4.5326	0.9533	+10.0
214.71	4.4801E+5	4.5297	0.9383	+11.7
214.91	4.4851E+5	4.5311	0.9235	+13.5
215.11	4.4901E+5	4.5269	0.9170	+13.8
215.31	4.4951E+5	4.5283	0.9089	+16.6
215.51	4.5001E+5	4.5297	0.8989	+14.6
215.71	4.5051E+5	4.5326	0.8946	+13.2
215.91	4.5101E+5	4.5283	0.8772	+16.9
216.11	4.5151E+5	4.5255	0.8692	+17.9
216.31	4.5201E+5	4.5311	0.8545	+17.3
216.51	4.5251E+5	4.5326	0.8579	+19.0
216.71	4.5301E+5	4.5311	0.8505	+19.7
216.91	4.5351E+5	4.5269	0.8331	+19.5
217.11	4.5401E+5	4.5283	0.8224	+20.9
217.31	4.5451E+5	4.5340	0.8283	+22.1
217.51	4.5501E+5	4.5297	0.8060	+23.7
217.72	4.5551E+5	4.5241	0.8031	+21.8
217.92	4.5601E+5	4.5326	0.7980	+23.9
218.12	4.5651E+5	4.5283	0.7839	+22.6
218.32	4.5701E+5	4.5326	0.7724	+23.6
218.52	4.5751E+5	4.5340	0.7666	+23.6
218.70	4.5801E+5	4.5326	0.7577	+25.9
218.89	4.5851E+5	4.5354	0.7541	+25.7
219.09	4.5901E+5	4.5340	0.7443	+26.5
219.29	4.5951E+5	4.5326	0.7334	+24.7
219.49	4.6001E+5	4.5269	0.7191	+24.2
219.69	4.6051E+5	4.5340	0.7152	+28.1
219.88	4.6101E+5	4.5354	0.7020	+28.6
220.08	4.6151E+5	4.5255	0.6940	+28.5
220.28	4.6201E+5	4.5311	0.6916	+28.8
220.48	4.6251E+5	4.5297	0.6785	+30.1
220.68	4.6301E+5	4.5311	0.6725	+31.6
220.88	4.6351E+5	4.5368	0.6576	+28.2
221.08	4.6401E+5	4.5354	0.6539	+30.1
221.28	4.6451E+5	4.5311	0.6490	+28.8
221.48	4.6501E+5	4.5382	0.6562	+31.2
221.68	4.6551E+5	4.5382	0.6361	+31.6
221.88	4.6601E+5	4.5311	0.6399	+30.7
222.08	4.6651E+5	4.5283	0.6160	+31.4
222.28	4.6701E+5	4.5297	0.6251	+33.3
222.50	4.6751E+5	4.5354	0.6107	+31.0
222.69	4.6801E+5	4.5340	0.6119	+33.3
222.88	4.6851E+5	4.5326	0.5991	+34.7
223.08	4.6901E+5	4.5297	0.5940	+32.2
223.28	4.6951E+5	4.5297	0.5938	+34.6
223.46	4.7001E+5	4.5382	0.5754	+36.0
223.66	4.7051E+5	4.5354	0.5889	+34.6
223.86	4.7101E+5	4.5326	0.5684	+35.7
224.06	4.7151E+5	4.5368	0.5600	+35.7
224.26	4.7201E+5	4.5311	0.5647	+38.2
224.46	4.7251E+5	4.5311	0.5493	+37.5
224.66	4.7301E+5	4.5354	0.5477	+36.5
224.84	4.7351E+5	4.5368	0.5462	+38.2
225.04	4.7401E+5	4.5297	0.5394	+36.7
225.24	4.7451E+5	4.5283	0.5449	+36.0
225.44	4.7501E+5	4.5326	0.5223	+35.8
225.64	4.7551E+5	4.5340	0.5165	+38.5
225.84	4.7601E+5	4.5382	0.5149	+35.8
226.04	4.7651E+5	4.5340	0.5117	+39.6
226.24	4.7701E+5	4.5396	0.5046	+38.5
226.44	4.7751E+5	4.5326	0.5046	+37.7
226.62	4.7801E+5	4.5311	0.5040	+37.3
226.80	4.7851E+5	4.5283	0.4827	+39.2
227.00	4.7901E+5	4.5311	0.4856	+39.6
227.20	4.7951E+5	4.5340	0.4814	+37.7
227.40	4.8001E+5	4.5396	0.4742	+38.8
227.60	4.8051E+5	4.5368	0.4733	+38.2
227.80	4.8101E+5	4.5326	0.4688	+41.1
228.00	4.8151E+5	4.5368	0.4581	+40.1
228.20	4.8201E+5	4.5283	0.4588	+40.5
228.38	4.8251E+5	4.5382	0.4528	+40.2
228.58	4.8301E+5	4.5382	0.4492	+38.6
228.78	4.8351E+5	4.5396	0.4448	+40.9
228.98	4.8401E+5	4.5340	0.4366	+42.2
229.18	4.8451E+5	4.5354	0.4469	+39.1
229.40	4.8501E+5	4.5269	0.4291	+39.3
229.60	4.8551E+5	4.5311	0.4220	+41.0
229.80	4.8601E+5	4.5354	0.4294	+42.6
230.00	4.8651E+5	4.5340	0.4184	+41.0
230.20	4.8701E+5	4.5297	0.4169	+42.3
230.40	4.8751E+5	4.5354	0.4135	+42.6
230.59	4.8801E+5	4.5354	0.4182	+41.1
230.79	4.8851E+5	4.5297	0.4050	+41.0
230.99	4.8901E+5	4.5326	0.4041	+42.4
231.18	4.8951E+5	4.5311	0.4076	+42.9
231.38	4.9001E+5	4.5326	0.4072	+42.3
231.56	4.9051E+5	4.5396	0.4001	+44.3
231.76	4.9101E+5	4.5354	0.3973	+44.4
231.96	4.9151E+5	4.5410	0.3949	+40.1
232.16	4.9201E+5	4.5297	0.3929	+41.5
232.39	4.9251E+5	4.5368	0.3831	+40.5
232.59	4.9301E+5	4.5340	0.3900	+42.1
232.77	4.9351E+5	4.5326	0.3775	+45.2
232.96	4.9401E+5	4.5311	0.3832	+44.8
233.16	4.9451E+5	4.5311	0.3720	+42.7
233.36	4.9501E+5	4.5410	0.3706	+45.8
233.57	4.9551E+5	4.5382	0.3704	+44.6
233.77	4.9601E+5	4.5340	0.3678	+45.9
233.97	4.9651E+5	4.5410	0.3606	+45.9
234.19	4.9701E+5	4.5354	0.3539	+41.6
234.40	4.9751E+5	4.5340	0.3514	+42.4
234.60	4.9801E+5	4.5368	0.3488	+45.2
234.80	4.9851E+5	4.5382	0.3485	+47.4
234.99	4.9901E+5	4.5311	0.3507	+44.9
235.18	4.9951E+5	4.5368	0.3380	+43.8
235.37	5.0001E+5	4.5326	0.3361	+45.5
235.55	5.0051E+5	4.5311	0.3315	+44.7
235.75	5.0101E+5	4.5382	0.3325	+45.5
235.95	5.0151E+5	4.5297	0.3346	+48.9
236.13	5.0201E+5	4.5340	0.3329	+44.3
236.32	5.0251E+5	4.5354	0.3230	+46.6
236.53	5.0301E+5	4.5326	0.3243	+47.1
236.71	5.0351E+5	4.5340	0.3206	+45.0
236.90	5.0401E+5	4.5396	0.3160	+43.8
237.08	5.0451E+5	4.5382	0.3130	+43.9
237.28	5.0501E+5	4.5311	0.3091	+44.1
237.48	5.0551E+5	4.5297	0.3101	+45.2
237.68	5.0601E+5	4.5326	0.3104	+45.1
237.86	5.0651E+5	4.5382	0.3085	+46.6
238.06	5.0701E+5	4.5326	0.3087	+46.8
238.25	5.0751E+5	4.5396	0.3060	+46.9
238.44	5.0801E+5	4.5396	0.3034	+44.2
238.65	5.0851E+5	4.5283	0.3042	+45.4
238.84	5.0901E+5	4.5382	0.3033	+45.9
239.04	5.0951E+5	4.5326	0.2990	+46.2
239.24	5.1001E+5	4.5425	0.2875	+45.0
239.48	5.1051E+5	4.5368	0.2952	+45.9
239.69	5.1101E+5	4.5311	0.2930	+47.9
239.87	5.1151E+5	4.5297	0.2896	+44.9
240.08	5.1201E+5	4.5368	0.2841	+49.5
240.28	5.1251E+5	4.5340	0.2845	+47.1
240.47	5.1301E+5	4.5340	0.2837	+48.4
240.67	5.1351E+5	4.5326	0.2797	+47.1
240.87	5.1401E+5	4.5410	0.2825	+49.0
241.11	5.1451E+5	4.5410	0.2806	+45.8
241.31	5.1501E+5	4.5382	0.2717	+47.6
241.52	5.1551E+5	4.5368	0.2750	+49.7
241.72	5.1601E+5	4.5354	0.2722	+46.1
241.92	5.1651E+5	4.5425	0.2758	+44.1
242.14	5.1701E+5	4.5326	0.2672	+46.8
242.37	5.1751E+5	4.5368	0.2663	+46.8
242.57	5.1801E+5	4.5382	0.2633	+47.3
242.77	5.1851E+5	4.5382	0.2704	+44.6
242.97	5.1901E+5	4.5368	0.2690	+46.1
243.17	5.1951E+5	4.5396	0.2605	+49.9
243.37	5.2001E+5	4.5311	0.2590	+49.7
243.57	5.2051E+5	4.5354	0.2597	+49.7
243.77	5.2101E+5	4.5311	0.2577	+46.5
243.97	5.2151E+5	4.5396	0.2482	+49.0
244.17	5.2201E+5	4.5382	0.2580	+47.5
244.37	5.2251E+5	4.5396	0.2455	+45.8
244.56	5.2301E+5	4.5382	0.2582	+52.1
244.76	5.2351E+5	4.5410	0.2462	+50.4
244.98	5.2401E+5	4.5382	0.2501	+43.9
245.20	5.2451E+5	4.5439	0.2426	+49.0
245.41	5.2501E+5	4.5382	0.2442	+47.1
245.63	5.2551E+5	4.5368	0.2385	+49.5
245.83	5.2601E+5	4.5425	0.2426	+49.0
246.05	5.2651E+5	4.5354	0.2404	+45.5
246.28	5.2701E+5	4.5425	0.2318	+47.6
246.49	5.2751E+5	4.5311	0.2348	+48.2
246.71	5.2801E+5	4.5368	0.2334	+50.3
246.91	5.2851E+5	4.5382	0.2253	+46.6
247.11	5.2901E+5	4.5425	0.2332	+47.8
247.33	5.2951E+5	4.5368	0.2318	+49.6
247.56	5.3001E+5	4.5410	0.2276	+47.6
247.78	5.3051E+5	4.5297	0.2284	+50.2
247.97	5.3101E+5	4.5326	0.2339	+46.2
248.17	5.3151E+5	4.5382	0.2208	+47.8
248.37	5.3201E+5	4.5368	0.2192	+48.9
248.57	5.3251E+5	4.5396	0.2211	+45.0
248.77	5.3301E+5	4.5354	0.2215	+48.2
248.97	5.3351E+5	4.5340	0.2185	+50.5
249.17	5.3401E+5	4.5382	0.2199	+43.2
249.37	5.3451E+5	4.5269	0.2168	+50.4
249.57	5.3501E+5	4.5354	0.2142	+49.7
249.77	5.3551E+5	4.5354	0.2160	+47.0
249.97	5.3601E+5	4.5326	0.2072	+47.5
250.17	5.3651E+5	4.5354	0.2131	+49.3
250.37	5.3701E+5	4.5382	0.2082	+46.9
250.57	5.3751E+5	4.5382	0.2107	+48.4
250.77	5.3801E+5	4.5396	0.2044	+47.2
250.97	5.3851E+5	4.5439	0.2065	+51.9
251.19	5.3901E+5	4.5382	0.2088	+50.7
251.40	5.3951E+5	4.5340	0.2094	+46.8
251.58	5.4001E+5	4.5340	0.2098	+47.0
251.77	5.4051E+5	4.5269	0.2024	+50.8
251.97	5.4101E+5	4.5410	0.2041	+49.8
252.18	5.4151E+5	4.5340	0.1950	+45.8
252.42	5.4201E+5	4.5311	0.2007	+50.6
252.62	5.4251E+5	4.5410	0.1983	+49.9
252.83	5.4301E+5	4.5354	0.1952	+45.8
253.06	5.4351E+5	4.5382	0.2002	+50.7
253.26	5.4401E+5	4.5396	0.1972	+51.6
253.46	5.4451E+5	4.5297	0.1983	+49.6
253.66	5.4501E+5	4.5425	0.1955	+45.4
253.88	5.4551E+5	4.5439	0.2028	+50.9
254.08	5.4601E+5	4.5326	0.2002	+48.7
254.31	5.4651E+5	4.5354	0.1872	+47.3
254.51	5.4701E+5	4.5396	0.1910	+50.7
254.71	5.4751E+5	4.5354	0.1952	+50.0
254.91	5.4801E+5	4.5425	0.1837	+49.8
255.14	5.4851E+5	4.5340	0.1835	+48.5
255.34	5.4901E+5	4.5382	0.1980	+47.9
255.54	5.4951E+5	4.5354	0.1835	+51.0
255.74	5.5001E+5	4.5354	0.1802	+48.9
255.94	5.5051E+5	4.5354	0.1836	+48.0
256.14	5.5101E+5	4.5368	0.1843	+47.9
256.32	5.5151E+5	4.5368	0.1837	+48.4
256.51	5.5201E+5	4.5368	0.1820	+50.3
256.71	5.5251E+5	4.5382	0.1811	+48.6
256.90	5.5301E+5	4.5382	0.1798	+49.7
257.11	5.5351E+5	4.5368	0.1784	+47.9
257.31	5.5401E+5	4.5326	0.1771	+48.0
257.50	5.5451E+5	4.5311	0.1770	+50.8
257.69	5.5501E+5	4.5382	0.1787	+51.3
257.89	5.5551E+5	4.5241	0.1782	+49.8
258.07	5.5601E+5	4.5396	0.1755	+44.7
258.27	5.5651E+5	4.5368	0.1688	+48.8
258.47	5.5701E+5	4.5354	0.1678	+48.6
258.65	5.5751E+5	4.5326	0.1631	+48.4
258.85	5.5801E+5	4.5311	0.1700	+46.9
259.05	5.5851E+5	4.5368	0.1696	+50.9
259.24	5.5901E+5	4.5340	0.1623	+47.1
259.43	5.5951E+5	4.5354	0.1680	+48.7
259.63	5.6001E+5	4.5368	0.1644	+46.7
259.85	5.6051E+5	4.5368	0.1603	+46.2
260.05	5.6101E+5	4.5410	0.1650	+47.9
260.25	5.6151E+5	4.5396	0.1650	+49.5
260.45	5.6201E+5	4.5326	0.1588	+50.7
260.65	5.6251E+5	4.5326	0.1614	+49.4
260.85	5.6301E+5	4.5368	0.1591	+48.1
261.05	5.6351E+5	4.5311	0.1547	+50.0
261.25	5.6401E+5	4.5368	0.1588	+50.4
261.45	5.6451E+5	4.5311	0.1593	+48.6
261.65	5.6501E+5	4.5354	0.1570	+49.0
261.85	5.6551E+5	4.5410	0.1565	+49.7
262.05	5.6601E+5	4.5354	0.1530	+48.0
262.26	5.6651E+5	4.5340	0.1547	+43.3
262.46	5.6701E+5	4.5354	0.1509	+50.6
262.66	5.6751E+5	4.5354	0.1558	+47.0
262.86	5.6801E+5	4.5269	0.1580	+49.2
263.06	5.6851E+5	4.5283	0.1535	+46.3
263.26	5.6901E+5	4.5368	0.1497	+48.5
263.44	5.6951E+5	4.5311	0.1544	+45.9
263.64	5.7001E+5	4.5269	0.1474	+47.2
263.84	5.7051E+5	4.5382	0.1492	+42.9
264.04	5.7101E+5	4.5354	0.1496	+47.2
264.22	5.7151E+5	4.5368	0.1550	+46.7
264.42	5.7201E+5	4.5354	0.1502	+50.9
264.62	5.7251E+5	4.5368	0.1486	+47.9
264.82	5.7301E+5	4.5311	0.1487	+53.2
265.00	5.7351E+5	4.5354	0.1495	+47.1
265.20	5.7401E+5	4.5311	0.1468	+50.2
265.40	5.7451E+5	4.5354	0.1479	+43.5
265.60	5.7501E+5	4.5368	0.1504	+48.7
265.79	5.7551E+5	4.5326	0.1420	+44.7
265.99	5.7601E+5	4.5382	0.1391	+46.7
266.19	5.7651E+5	4.5354	0.1469	+48.8
266.39	5.7701E+5	4.5368	0.1440	+48.7
266.59	5.7751E+5	4.5326	0.1453	+46.9
266.79	5.7801E+5	4.5340	0.1430	+47.7
266.99	5.7851E+5	4.5368	0.1414	+44.8
267.18	5.7901E+5	4.5382	0.1351	+44.1
267.38	5.7951E+5	4.5297	0.1388	+47.2
267.58	5.8001E+5	4.5382	0.1425	+51.8
267.77	5.8051E+5	4.5269	0.1381	+48.5
267.96	5.8101E+5	4.5368	0.1384	+46.8
268.15	5.8151E+5	4.5368	0.1423	+49.0
268.35	5.8201E+5	4.5311	0.1491	+47.1
268.55	5.8251E+5	4.5297	0.1370	+48.4
268.75	5.8301E+5	4.5354	0.1360	+45.9
268.95	5.8351E+5	4.5340	0.1375	+47.7
269.15	5.8401E+5	4.5368	0.1393	+49.1
269.33	5.8451E+5	4.5354	0.1412	+52.6
269.53	5.8501E+5	4.5354	0.1356	+49.5
269.73	5.8551E+5	4.5354	0.1300	+52.4
269.93	5.8601E+5	4.5382	0.1353	+49.6
270.13	5.8651E+5	4.5326	0.1357	+45.7
270.31	5.8701E+5	4.5326	0.1342	+48.3
270.51	5.8751E+5	4.5340	0.1252	+45.2
270.71	5.8801E+5	4.5368	0.1307	+47.2
270.89	5.8851E+5	4.5368	0.1284	+47.0
271.09	5.8901E+5	4.5297	0.1276	+45.9
271.29	5.8951E+5	4.5354	0.1370	+47.5
271.49	5.9001E+5	4.5255	0.1230	+47.1
271.69	5.9051E+5	4.5396	0.1293	+49.1
271.89	5.9101E+5	4.5326	0.1284	+47.7
272.07	5.9151E+5	4.5297	0.1265	+46.4
272.27	5.9201E+5	4.5297	0.1257	+47.4
272.44	5.9251E+5	4.5368	0.1250	+46.9
272.66	5.9301E+5	4.5297	0.1307	+46.2
272.86	5.9351E+5	4.5255	0.1269	+47.5
273.06	5.9401E+5	4.5368	0.1289	+44.3
273.25	5.9451E+5	4.5340	0.1265	+49.4
273.45	5.9501E+5	4.5297	0.1240	+46.2
273.64	5.9551E+5	4.5326	0.1253	+46.6
273.84	5.9601E+5	4.5311	0.1253	+49.1
274.02	5.9651E+5	4.5382	0.1243	+44.6
274.22	5.9701E+5	4.5340	0.1241	+53.9
274.40	5.9751E+5	4.5396	0.1209	+48.5
274.60	5.9801E+5	4.5340	0.1330	+43.8
274.80	5.9851E+5	4.5368	0.1246	+45.1
274.98	5.9901E+5	4.5326	0.1218	+46.6
275.18	5.9951E+5	4.5354	0.1232	+47.6
275.38	6.0001E+5	4.5354	0.1161	+42.5
275.60	6.0051E+5	4.5297	0.1181	+52.2
275.80	6.0101E+5	4.5382	0.1191	+49.2
276.00	6.0151E+5	4.5297	0.1178	+48.2
276.16	6.0201E+5	4.5326	0.1157	+43.5
276.35	6.0251E+5	4.5326	0.1138	+47.3
276.53	6.0301E+5	4.5311	0.1159	+47.0
276.73	6.0351E+5	4.5283	0.1160	+44.7
276.89	6.0401E+5	4.5340	0.1178	+46.2
277.06	6.0451E+5	4.5368	0.1149	+49.4
277.25	6.0501E+5	4.5368	0.1183	+48.0
277.43	6.0551E+5	4.5326	0.1192	+45.8
277.59	6.0601E+5	4.5297	0.1147	+42.0
277.78	6.0651E+5	4.5269	0.1118	+47.2
277.96	6.0701E+5	4.5269	0.1200	+49.2
278.13	6.0751E+5	4.5311	0.1074	+47.2
278.31	6.0801E+5	4.5354	0.1129	+46.2
278.49	6.0851E+5	4.5311	0.1123	+44.5
278.68	6.0901E+5	4.5269	0.1189	+47.1
278.86	6.0951E+5	4.5311	0.1086	+50.0
279.02	6.1001E+5	4.5227	0.1117	+46.9
279.21	6.1051E+5	4.5340	0.1086	+49.5
279.41	6.1101E+5	4.5297	0.1065	+47.0
279.61	6.1151E+5	4.5326	0.1119	+41.5
279.81	6.1201E+5	4.5326	0.1158	+46.8
279.99	6.1251E+5	4.5326	0.1107	+40.1
280.19	6.1301E+5	4.5326	0.1068	+47.3
280.39	6.1351E+5	4.5269	0.1079	+41.0
280.57	6.1401E+5	4.5354	0.1073	+44.8
280.76	6.1451E+5	4.5283	0.1107	+43.7
280.94	6.1501E+5	4.5212	0.1113	+47.8
281.14	6.1551E+5	4.5255	0.1095	+44.3
281.34	6.1601E+5	4.5326	0.1054	+44.2
281.54	6.1651E+5	4.5326	0.1064	+52.0
281.72	6.1701E+5	4.5311	0.1044	+44.1
281.90	6.1751E+5	4.5255	0.1060	+44.1
282.10	6.1801E+5	4.5326	0.1054	+44.8
282.29	6.1851E+5	4.5241	0.1061	+42.6
282.47	6.1901E+5	4.5283	0.1039	+47.6
282.65	6.1951E+5	4.5340	0.1041	+49.7
282.85	6.2001E+5	4.5326	0.1050	+39.5
283.03	6.2051E+5	4.5340	0.1064	+48.1
283.23	6.2101E+5	4.5340	0.1014	+44.4
283.43	6.2151E+5	4.5297	0.1014	+45.1
283.60	6.2201E+5	4.5297	0.1110	+44.6
283.80	6.2251E+5	4.5326	0.1011	+43.3
284.00	6.2301E+5	4.5326	0.1014	+45.3
284.20	6.2351E+5	4.5283	0.1007	+41.2
284.38	6.2401E+5	4.5311	0.0964	+40.5
284.58	6.2451E+5	4.5283	0.0987	+47.7
284.78	6.2501E+5	4.5311	0.1000	+47.8
284.98	6.2551E+5	4.5198	0.1041	+51.2
285.18	6.2601E+5	4.5297	0.0985	+48.5
285.36	6.2651E+5	4.5269	0.1025	+47.4
285.56	6.2701E+5	4.5311	0.1027	+48.3
285.75	6.2751E+5	4.5283	0.0982	+48.3
285.94	6.2801E+5	4.5382	0.0962	+45.9
286.13	6.2851E+5	4.5354	0.0975	+44.5
286.33	6.2901E+5	4.5297	0.0987	+48.3
286.52	6.2951E+5	4.5340	0.1051	+50.7
286.73	6.3001E+5	4.5326	0.0968	+46.8
286.91	6.3051E+5	4.5283	0.1002	+44.2
287.11	6.3101E+5	4.5227	0.0993	+45.5
287.31	6.3151E+5	4.5255	0.0995	+53.2
287.49	6.3201E+5	4.5283	0.0951	+42.9
287.67	6.3251E+5	4.5311	0.0987	+42.2
287.87	6.3301E+5	4.5354	0.0986	+42.2
288.06	6.3351E+5	4.5227	0.0966	+46.8
288.25	6.3401E+5	4.5241	0.0955	+45.1
288.42	6.3451E+5	4.5269	0.0960	+46.8
288.61	6.3501E+5	4.5241	0.0938	+44.3
288.81	6.3551E+5	4.5283	0.0978	+47.2
289.00	6.3601E+5	4.5283	0.0946	+42.4
289.19	6.3651E+5	4.5255	0.0975	+42.9
289.39	6.3701E+5	4.5297	0.0936	+44.0
289.59	6.3751E+5	4.5198	0.0934	+42.8
289.77	6.3801E+5	4.5297	0.0944	+40.8
289.95	6.3851E+5	4.5255	0.0942	+45.1
290.13	6.3901E+5	4.5297	0.0911	+42.7
290.33	6.3951E+5	4.5297	0.0907	+49.9
290.52	6.4001E+5	4.5297	0.1041	+44.6
290.70	6.4051E+5	4.5326	0.0941	+44.1
290.90	6.4101E+5	4.5255	0.0940	+47.5
291.10	6.4151E+5	4.5241	0.0936	+44.6
291.27	6.4201E+5	4.5227	0.0911	+45.6
291.46	6.4251E+5	4.5297	0.1056	+39.0
291.67	6.4301E+5	4.5326	0.0870	+43.5
291.87	6.4351E+5	4.5283	0.0914	+43.9
292.05	6.4401E+5	4.5212	0.0873	+40.4
292.25	6.4451E+5	4.5283	0.0887	+46.1
292.45	6.4501E+5	4.5297	0.0906	+37.6
292.65	6.4551E+5	4.5255	0.0942	+44.2
292.83	6.4601E+5	4.5382	0.0857	+43.6
293.03	6.4651E+5	4.5255	0.0859	+43.4
293.21	6.4701E+5	4.5283	0.0904	-320.2
293.39	6.4751E+5	4.5269	0.0884	+42.1
293.60	6.4801E+5	4.5241	0.0879	+44.4
293.79	6.4851E+5	4.5283	0.0860	+44.9
293.99	6.4901E+5	4.5227	0.0844	+42.1
294.18	6.4951E+5	4.5198	0.0888	+44.8
294.38	6.5001E+5	4.5297	0.0896	+43.2
294.56	6.5051E+5	4.5269	0.0864	+51.4
294.74	6.5101E+5	4.5212	0.0967	+45.1
294.94	6.5151E+5	4.5212	0.0817	+34.9
295.14	6.5201E+5	4.5212	0.0852	+48.2
295.32	6.5251E+5	4.5255	0.0952	+31.9
295.52	6.5301E+5	4.5212	0.0908	+41.9
295.72	6.5351E+5	4.5255	0.0837	+38.2
295.92	6.5401E+5	4.5255	0.0845	+42.7
296.11	6.5451E+5	4.5297	0.0832	+35.9
296.31	6.5501E+5	4.5283	0.0813	+40.7
296.50	6.5551E+5	4.5269	0.0883	+45.5
296.69	6.5601E+5	4.5255	0.0852	+45.3
296.89	6.5651E+5	4.5198	0.0872	+43.8
297.09	6.5701E+5	4.5241	0.0839	+46.8
297.25	6.5751E+5	4.5241	0.0872	+42.8
297.45	6.5801E+5	4.5227	0.0817	+41.3
297.65	6.5851E+5	4.5212	0.0840	+47.6
297.85	6.5901E+5	4.5255	Inf	-319.4
298.02	6.5951E+5	4.5269	0.0936	+39.7
298.22	6.6001E+5	4.5184	0.0800	+45.4
298.42	6.6051E+5	4.5255	0.0829	+42.9
298.60	6.6101E+5	4.5241	0.0822	+42.9
298.80	6.6151E+5	4.5269	0.0813	+41.5
299.00	6.6201E+5	4.5283	0.0806	+42.5
299.17	6.6251E+5	4.5255	0.0797	+42.0
299.37	6.6301E+5	4.5241	0.0927	+41.1
299.56	6.6351E+5	4.5198	0.0843	+42.6
299.75	6.6401E+5	4.5212	0.0801	+40.9
299.95	6.6451E+5	4.5212	0.0811	+44.5
300.13	6.6501E+5	4.5255	0.0819	+41.7
300.31	6.6551E+5	4.5241	0.0801	+44.7
300.51	6.6601E+5	4.5212	0.0813	+43.6
300.70	6.6651E+5	4.5255	0.0775	+38.5
300.88	6.6701E+5	4.5269	0.0792	+46.3
301.08	6.6751E+5	4.5241	0.0754	-316.7
301.28	6.6801E+5	4.5227	0.0804	+46.0
301.44	6.6851E+5	4.5184	0.0764	+43.8
301.64	6.6901E+5	4.5241	0.0802	+37.9
301.84	6.6951E+5	4.5198	0.0780	+43.6
302.03	6.7001E+5	4.5227	0.0777	+41.5
302.21	6.7051E+5	4.5340	0.0795	+49.3
302.41	6.7101E+5	4.5241	0.0776	+35.3
302.59	6.7151E+5	4.5241	0.0782	+43.8
302.77	6.7201E+5	4.5227	0.0750	+36.3
302.98	6.7251E+5	4.5269	0.0803	+35.8
303.16	6.7301E+5	4.5241	0.0781	+47.3
303.36	6.7351E+5	4.5212	0.0870	+36.6
303.56	6.7401E+5	4.5241	0.0809	+38.9
303.74	6.7451E+5	4.5212	0.0767	+40.7
303.94	6.7501E+5	4.5269	0.0755	+41.8
304.14	6.7551E+5	4.5227	0.0760	+42.8
304.32	6.7601E+5	4.5198	0.0760	+45.0
304.50	6.7651E+5	4.5198	0.0738	+39.2
304.70	6.7701E+5	4.5297	0.0734	+38.6
304.87	6.7751E+5	4.5227	0.0768	+41.7
305.07	6.7801E+5	4.5311	0.0766	+39.1
305.25	6.7851E+5	4.5269	0.0759	+38.1
305.42	6.7901E+5	4.5212	0.0760	+41.5
305.60	6.7951E+5	4.5311	0.0774	+41.7
305.80	6.8001E+5	4.5255	0.0742	+43.6
305.99	6.8051E+5	4.5269	0.0733	+42.3
306.17	6.8101E+5	4.5283	0.0758	+44.9
306.37	6.8151E+5	4.5198	0.0744	+41.2
306.55	6.8201E+5	4.5212	0.0747	+40.8
306.73	6.8251E+5	4.5241	0.0727	+39.8
306.93	6.8301E+5	4.5170	0.0834	+38.8
307.12	6.8351E+5	4.5283	0.0740	+42.3
307.31	6.8401E+5	4.5227	0.0743	+39.9
307.50	6.8451E+5	4.5283	0.0772	+41.1
307.70	6.8501E+5	4.5269	0.0727	+35.2
307.90	6.8551E+5	4.5212	0.0740	+38.8
308.06	6.8601E+5	4.5255	0.0701	-318.6
308.25	6.8651E+5	4.5269	0.0825	+25.9
308.45	6.8701E+5	4.5311	0.0793	+37.3
308.63	6.8751E+5	4.5227	0.0749	+37.9
308.83	6.8801E+5	4.5283	0.0732	+39.5
309.03	6.8851E+5	4.5255	0.0715	+42.5
309.21	6.8901E+5	4.5283	0.0690	+40.3
309.41	6.8951E+5	4.5255	0.0771	+38.7
309.59	6.9001E+5	4.5241	0.0728	+36.2
309.79	6.9051E+5	4.5241	0.0747	+41.8
309.99	6.9101E+5	4.5184	0.0698	+40.2
310.18	6.9151E+5	4.5227	0.0700	+39.3
310.36	6.9201E+5	4.5227	0.0695	+40.3
310.54	6.9251E+5	4.5184	0.0704	+43.2
310.73	6.9301E+5	4.5283	0.0721	+44.0
310.92	6.9351E+5	4.5283	0.0713	+43.6
311.11	6.9401E+5	4.5269	0.0734	+41.0
311.31	6.9451E+5	4.5241	0.0704	+33.6
311.51	6.9501E+5	4.5227	0.0710	+41.7
311.67	6.9551E+5	4.5184	0.0708	+40.0
311.86	6.9601E+5	4.5241	0.0699	+44.5
312.06	6.9651E+5	4.5255	0.0685	+38.4
312.24	6.9701E+5	4.5311	0.0701	+29.5
312.44	6.9751E+5	4.5227	0.0697	+30.6
312.62	6.9801E+5	4.5227	0.0671	-314.5
312.82	6.9851E+5	4.5227	0.0700	+39.5
313.02	6.9901E+5	4.5241	0.0676	+39.2
313.20	6.9951E+5	4.5269	0.0684	+47.1
313.39	7.0001E+5	4.5198	0.0679	+37.5
313.55	7.0051E+5	4.5170	0.0674	+34.4
313.74	7.0101E+5	4.5227	0.0667	-317.7
313.94	7.0151E+5	4.5170	0.0686	+38.4
314.12	7.0201E+5	4.5198	0.0690	+34.7
314.30	7.0251E+5	4.5255	0.0689	+40.8
314.48	7.0301E+5	4.5198	0.0674	+33.8
314.67	7.0351E+5	4.5269	0.0692	+38.1
314.87	7.0401E+5	4.5198	0.0693	+37.8
315.03	7.0451E+5	4.5198	0.0674	+35.4
315.23	7.0501E+5	4.5184	0.0772	+33.6
315.43	7.0551E+5	4.5212	0.0725	+33.3
315.61	7.0601E+5	4.5085	0.0640	+35.6
315.83	7.0651E+5	4.5245	0.0678	+29.7
316.03	7.0701E+5	4.5283	0.0690	+36.3
316.23	7.0751E+5	4.5212	0.0661	+42.1
316.43	7.0801E+5	4.5227	0.0655	+38.6
316.61	7.0851E+5	4.5156	0.0659	+34.5
316.81	7.0901E+5	4.5297	0.0691	+34.7
317.00	7.0951E+5	4.5227	0.0657	-325.0
317.19	7.1001E+5	4.5212	0.0663	+37.4
317.39	7.1051E+5	4.5170	0.0640	+40.8
317.58	7.1101E+5	4.5297	0.0648	+36.9
317.78	7.1151E+5	4.5198	0.0726	+41.6
317.96	7.1201E+5	4.5255	0.0664	+41.4
318.16	7.1251E+5	4.5227	0.0671	+44.2
318.32	7.1301E+5	4.5184	0.0663	+38.5
318.53	7.1351E+5	4.5297	0.0651	+33.9
318.72	7.1401E+5	4.5156	0.0702	+38.2
318.91	7.1451E+5	4.5227	0.0717	+30.2
319.11	7.1501E+5	4.5227	0.0655	+36.9
319.29	7.1551E+5	4.5198	Inf	+34.1
319.47	7.1601E+5	4.5156	0.0657	+30.6
319.66	7.1651E+5	4.5212	Inf	+41.1
319.82	7.1701E+5	4.5241	0.0622	-323.6
320.02	7.1751E+5	4.5241	0.0713	+42.9
320.20	7.1801E+5	4.5255	0.0665	+38.4
320.40	7.1851E+5	4.5170	0.0641	+39.6
320.60	7.1901E+5	4.5241	0.0643	+33.9
320.77	7.1951E+5	4.5255	0.0629	+33.2
320.97	7.2001E+5	4.5255	0.0642	+43.9
321.15	7.2051E+5	4.5255	0.0653	+34.3
321.35	7.2101E+5	4.5227	0.0695	+37.4
321.54	7.2151E+5	4.5198	0.0651	+35.9
321.74	7.2201E+5	4.5198	0.0645	+41.3
321.92	7.2251E+5	4.5170	0.0644	+35.2
322.08	7.2301E+5	4.5241	Inf	+44.8
322.27	7.2351E+5	4.5227	0.0646	+34.7
322.43	7.2401E+5	4.5170	0.0638	+35.9
322.63	7.2451E+5	4.5198	0.0627	+40.4
322.82	7.2501E+5	4.5283	0.0623	+39.3
323.00	7.2551E+5	4.5170	0.0627	+41.0
323.18	7.2601E+5	4.5198	0.0626	-326.3
323.35	7.2651E+5	4.5227	0.0625	+34.7
323.53	7.2701E+5	4.5269	0.0634	+34.5
323.71	7.2751E+5	4.5198	0.0678	+39.6
323.91	7.2801E+5	4.5241	0.0623	+30.4
324.10	7.2851E+5	4.5212	Inf	+36.8
324.28	7.2901E+5	4.5156	0.0617	+37.5
324.46	7.2951E+5	4.5227	0.0623	-326.0
324.63	7.3001E+5	4.5255	0.0586	-318.3
324.83	7.3051E+5	4.5340	0.0606	+38.7
325.01	7.3101E+5	4.5255	0.0605	-326.0
325.19	7.3151E+5	4.5255	0.0616	+34.6
325.38	7.3201E+5	4.5212	0.0601	+39.2
325.58	7.3251E+5	4.5227	0.0681	+35.2
325.76	7.3301E+5	4.5212	0.0624	+28.1
325.96	7.3351E+5	4.5198	0.0594	+33.0
326.16	7.3401E+5	4.5198	0.0696	+33.5
326.34	7.3451E+5	4.5212	0.0594	+35.6
326.54	7.3501E+5	4.5156	0.0612	+32.6
326.73	7.3551E+5	4.5212	0.0615	+37.3
326.91	7.3601E+5	4.5241	Inf	+35.3
327.07	7.3651E+5	4.5241	0.0583	+34.2
327.27	7.3701E+5	4.5212	0.0602	+34.8
327.46	7.3751E+5	4.5227	0.0612	+37.6
327.64	7.3801E+5	4.5227	0.0593	+32.2
327.84	7.3851E+5	4.5212	0.0592	+30.0
328.00	7.3901E+5	4.5241	0.0604	-329.1
328.20	7.3951E+5	4.5283	0.0603	+32.7
328.37	7.4001E+5	4.5241	0.0597	+32.9
328.57	7.4051E+5	4.5184	0.0584	+33.8
328.75	7.4101E+5	4.5198	0.0580	+25.8
328.94	7.4151E+5	4.5198	0.0592	+35.5
329.12	7.4201E+5	4.5227	0.0584	-320.3
329.32	7.4251E+5	4.5142	Inf	+27.9
329.49	7.4301E+5	4.5227	0.0570	-322.6
329.69	7.4351E+5	4.5241	0.0590	+28.5
329.88	7.4401E+5	4.5198	0.0589	+30.4
330.05	7.4451E+5	4.5241	0.0593	+34.5
330.23	7.4501E+5	4.5198	0.0575	+35.7
330.42	7.4551E+5	4.5227	0.0631	+31.5
330.62	7.4601E+5	4.5184	0.0575	-325.2
330.80	7.4651E+5	4.5212	0.0617	+35.2
331.00	7.4701E+5	4.5340	0.0576	-329.7
331.18	7.4751E+5	4.5198	0.0575	+36.5
331.36	7.4801E+5	4.5198	0.0567	+32.2
331.53	7.4851E+5	4.5227	0.0569	+34.3
331.71	7.4901E+5	4.5156	0.0579	+31.6
331.90	7.4951E+5	4.5170	0.0571	+28.1
332.10	7.5001E+5	4.5212	Inf	+30.6
332.28	7.5051E+5	4.5227	0.0555	+32.6
332.46	7.5101E+5	4.5198	0.0629	+28.0
332.67	7.5151E+5	4.5156	0.0555	-322.2
332.84	7.5201E+5	4.5170	0.0564	+30.9
333.04	7.5251E+5	4.5198	0.0629	+39.0
333.23	7.5301E+5	4.5255	Inf	+32.1
333.41	7.5351E+5	4.5269	0.0560	-324.2
333.59	7.5401E+5	4.5142	0.0573	+34.0
333.78	7.5451E+5	4.5113	Inf	+33.4
333.96	7.5501E+5	4.5221	0.0623	+39.5
334.18	7.5551E+5	4.5198	0.0569	-325.6
334.36	7.5601E+5	4.5156	0.0607	+36.0
334.56	7.5651E+5	4.5241	0.0561	+32.7
334.74	7.5701E+5	4.5212	0.0555	-320.4
334.94	7.5751E+5	4.5255	0.0560	+39.7
335.12	7.5801E+5	4.5241	0.0550	-322.5
335.32	7.5851E+5	4.5156	0.0562	+33.9
335.50	7.5901E+5	4.5170	0.0565	+39.0
335.69	7.5951E+5	4.5198	0.0556	+26.6
335.89	7.6001E+5	4.5142	0.0549	-326.8
336.05	7.6051E+5	4.5227	0.0583	+35.4
336.25	7.6101E+5	4.5241	Inf	+30.7
336.42	7.6151E+5	4.5198	0.0555	+35.3
336.62	7.6201E+5	4.5198	0.0561	+32.6
336.80	7.6251E+5	4.5212	0.0561	+25.7
336.99	7.6301E+5	4.5241	0.0557	-334.1
337.17	7.6351E+5	4.5198	0.0559	+31.0
337.37	7.6401E+5	4.5184	0.0553	+33.8
337.55	7.6451E+5	4.5255	0.0548	+33.9
337.73	7.6501E+5	4.5198	0.0581	+28.5
337.90	7.6551E+5	4.5198	0.0607	+37.2
338.10	7.6601E+5	4.5227	0.0537	-322.7
338.28	7.6651E+5	4.5142	Inf	+26.6
338.47	7.6701E+5	4.5184	0.0542	+33.1
338.63	7.6751E+5	4.5227	0.0545	+23.9
338.83	7.6801E+5	4.5156	0.0613	+29.9
339.01	7.6851E+5	4.5142	0.0569	-336.6
339.21	7.6901E+5	4.5170	0.0549	+24.2
339.40	7.6951E+5	4.5198	0.0541	+28.8
339.60	7.7001E+5	4.5170	0.0535	+22.6
339.76	7.7051E+5	4.5142	0.0547	-320.4
339.96	7.7101E+5	4.5142	0.0538	+31.2
340.15	7.7151E+5	4.5269	Inf	+27.2
340.33	7.7201E+5	4.5184	0.0558	-328.5
340.51	7.7251E+5	4.5142	0.0529	+27.0
340.71	7.7301E+5	4.5227	0.0556	-341.9
340.89	7.7351E+5	4.5184	0.0540	+26.7
341.09	7.7401E+5	4.5212	0.0548	+31.5
341.28	7.7451E+5	4.5212	0.0533	+30.0
341.48	7.7501E+5	4.5156	0.0534	+34.0
341.64	7.7551E+5	4.5283	0.0550	+33.3
341.84	7.7601E+5	4.5170	0.0535	+25.4
342.03	7.7651E+5	4.5269	0.0547	+32.6
342.22	7.7701E+5	4.5156	0.0539	+32.3
342.41	7.7751E+5	4.5212	Inf	+31.3
342.59	7.7801E+5	4.5212	0.0543	+32.7
342.76	7.7851E+5	4.5184	0.0607	+21.0
342.96	7.7901E+5	4.5184	0.0536	+31.0
343.14	7.7951E+5	4.5113	0.0518	-330.3
343.36	7.8001E+5	4.5119	0.0519	-332.8
343.54	7.8051E+5	4.5212	0.0539	+22.4
343.74	7.8101E+5	4.5113	0.0539	+32.9
343.92	7.8151E+5	4.5194	0.0527	+27.4
344.14	7.8201E+5	4.5269	0.0524	+28.6
344.30	7.8251E+5	4.5156	0.0522	+33.1
344.48	7.8301E+5	4.5283	Inf	+31.7
344.64	7.8351E+5	4.5255	Inf	+28.7
344.82	7.8401E+5	4.5212	0.0523	+27.0
344.98	7.8451E+5	4.5227	0.0516	+23.7
345.19	7.8501E+5	4.5184	0.0506	+26.0
345.35	7.8551E+5	4.5128	0.0535	+28.9
345.55	7.8601E+5	4.5198	Inf	+10.5
345.72	7.8651E+5	4.5255	0.0516	+23.3
345.92	7.8701E+5	4.5283	0.0508	+30.3
346.08	7.8751E+5	4.5227	0.0518	+27.7
346.28	7.8801E+5	4.5227	0.0535	-337.2
346.47	7.8851E+5	4.5170	0.0513	-327.5
346.67	7.8901E+5	4.5184	Inf	+28.3
346.83	7.8951E+5	4.5184	0.0528	-330.4
347.03	7.9001E+5	4.5198	0.0531	+26.8
347.21	7.9051E+5	4.5156	0.0518	+28.0
347.40	7.9101E+5	4.5227	0.0514	+30.0
347.60	7.9151E+5	4.5198	0.0518	-330.7
347.78	7.9201E+5	4.5212	0.0528	+29.0
347.96	7.9251E+5	4.5269	0.0507	+30.3
348.14	7.9301E+5	4.5113	0.0508	-326.4
348.35	7.9351E+5	4.5181	0.0537	+30.8
348.54	7.9401E+5	4.5198	0.0522	+24.1
348.74	7.9451E+5	4.5269	0.0513	+28.8
348.93	7.9501E+5	4.5227	0.0514	+17.8
349.11	7.9551E+5	4.5142	0.0501	+25.8
349.29	7.9601E+5	4.5184	0.0577	+15.6
349.49	7.9651E+5	4.5212	Inf	+26.2
349.66	7.9701E+5	4.5156	0.0505	+24.4
349.86	7.9751E+5	4.5170	0.0514	+33.7
350.02	7.9801E+5	4.5156	0.0515	+29.6
350.21	7.9851E+5	4.5241	0.0498	+19.7
350.39	7.9901E+5	4.5156	Inf	+30.7
350.57	7.9951E+5	4.5255	0.0512	+39.0
350.76	8.0001E+5	4.5128	0.0506	+24.9
350.92	8.0051E+5	4.5170	0.0508	+22.8
351.11	8.0101E+5	4.5241	0.0506	-326.7
351.27	8.0151E+5	4.5128	Inf	+372.2
351.45	8.0201E+5	4.5198	Inf	+35.4
351.62	8.0251E+5	4.5227	0.0507	+27.0
351.80	8.0301E+5	4.5156	0.0504	-333.9
351.97	8.0351E+5	4.5184	0.0496	-327.7
352.17	8.0401E+5	4.5128	0.0506	-329.6
352.35	8.0451E+5	4.5113	Inf	+28.3
352.55	8.0501E+5	4.5102	0.0553	+34.8
352.74	8.0551E+5	4.5166	0.0499	-333.8
352.95	8.0601E+5	4.5170	Inf	+21.9
353.12	8.0651E+5	4.5113	0.0509	+18.7
353.33	8.0701E+5	4.5234	0.0523	-343.6
353.53	8.0751E+5	4.5198	0.0500	+21.7
353.72	8.0801E+5	4.5184	0.0504	+27.4
353.92	8.0851E+5	4.5227	Inf	+33.2
354.08	8.0901E+5	4.5128	0.0490	-331.1
354.28	8.0951E+5	4.5170	0.0498	-333.1
354.45	8.1001E+5	4.5227	0.0497	+26.9
354.63	8.1051E+5	4.5198	0.0503	-326.2
354.81	8.1101E+5	4.5184	0.0489	+34.6
355.01	8.1151E+5	4.5198	Inf	+25.2
355.18	8.1201E+5	4.5071	0.0492	+33.5
355.38	8.1251E+5	4.5176	Inf	+26.9
355.56	8.1301E+5	4.5113	0.0572	+12.6
355.76	8.1351E+5	4.5181	0.0478	+24.2
355.98	8.1401E+5	4.5269	0.0494	+29.2
356.16	8.1451E+5	4.5156	0.0500	+28.8
356.34	8.1501E+5	4.5227	0.0489	+29.0
356.49	8.1551E+5	4.5156	Inf	+32.2
356.68	8.1601E+5	4.5297	0.0493	+24.9
356.84	8.1651E+5	4.5170	Inf	+26.5
357.03	8.1701E+5	4.5170	Inf	+17.9
357.19	8.1751E+5	4.5142	0.0492	+27.0
357.37	8.1801E+5	4.5128	Inf	+32.5
357.54	8.1851E+5	4.5128	0.0484	+26.9
357.73	8.1901E+5	4.5184	0.0486	+34.2
357.91	8.1951E+5	4.5198	0.0491	+32.1
358.09	8.2001E+5	4.5113	0.0485	+19.8
358.31	8.2051E+5	4.5227	0.0485	-335.6
358.49	8.2101E+5	4.5170	0.0479	-335.3
358.67	8.2151E+5	4.5198	0.0486	+28.1
358.84	8.2201E+5	4.5099	0.0490	+22.0
359.06	8.2251E+5	4.5212	0.0474	+23.5
359.26	8.2301E+5	4.5142	0.0483	-331.2
359.42	8.2351E+5	4.5113	0.0489	+23.1
359.64	8.2401E+5	4.5183	0.0487	+28.2
359.84	8.2451E+5	4.5241	0.0539	+24.8
360.04	8.2501E+5	4.5057	0.0469	-330.9
360.24	8.2551E+5	4.5153	0.0483	-334.9
360.45	8.2601E+5	4.5170	0.0484	-335.1
360.62	8.2651E+5	4.5156	Inf	+26.8
360.79	8.2701E+5	4.5227	0.0480	+21.3
360.97	8.2751E+5	4.5113	0.0484	+25.4
361.15	8.2801E+5	4.5102	Inf	+25.9
361.33	8.2851E+5	4.5154	0.0475	-328.0
361.51	8.2901E+5	4.5170	Inf	+17.7
361.70	8.2951E+5	4.5099	0.0474	+23.0
361.90	8.3001E+5	4.5150	0.0470	+32.5
362.12	8.3051E+5	4.5128	0.0475	-331.0
362.30	8.3101E+5	4.5113	Inf	+23.6
362.46	8.3151E+5	4.5188	0.0476	+28.1
362.68	8.3201E+5	4.5156	0.0475	+27.7
362.85	8.3251E+5	4.5198	0.0476	+16.3
363.03	8.3301E+5	4.5142	0.0486	+26.4
363.20	8.3351E+5	4.5212	0.0485	+25.9
363.38	8.3401E+5	4.5085	0.0465	+23.4
363.58	8.3451E+5	4.5087	0.0475	-338.8
363.76	8.3501E+5	4.5106	0.0529	+32.2
363.96	8.3551E+5	4.5167	Inf	+20.6
364.14	8.3601E+5	4.5085	Inf	+20.1
364.34	8.3651E+5	4.5116	0.0471	-341.9
364.54	8.3701E+5	4.5156	0.0470	+23.1
364.73	8.3751E+5	4.5170	0.0435	+18.7
364.91	8.3801E+5	4.5156	0.0464	-333.2
365.07	8.3851E+5	4.5198	0.0471	+18.6
365.26	8.3901E+5	4.5184	0.0466	+22.3
365.42	8.3951E+5	4.5113	0.0459	+18.9
365.64	8.4001E+5	4.5197	0.0467	+29.3
365.84	8.4051E+5	4.5212	0.0475	-337.3
366.04	8.4101E+5	4.5198	0.0466	+16.8
366.22	8.4151E+5	4.5170	Inf	+20.8
366.39	8.4201E+5	4.5156	Inf	+29.2
366.57	8.4251E+5	4.5085	0.0471	+23.5
366.75	8.4301E+5	4.5160	0.0482	-328.8
366.97	8.4351E+5	4.5071	0.0463	+27.4
367.17	8.4401E+5	4.5091	0.0467	-330.9
367.35	8.4451E+5	4.5188	0.0461	+20.7
367.54	8.4501E+5	4.5142	0.0451	+19.3
367.72	8.4551E+5	4.5128	0.0462	+18.6
367.92	8.4601E+5	4.5113	0.0462	+24.5
368.08	8.4651E+5	4.5153	Inf	+375.3
368.27	8.4701E+5	4.5099	0.0467	+20.3
368.43	8.4751E+5	4.5084	0.0462	-330.7
368.58	8.4801E+5	4.5212	0.0455	+21.1
368.78	8.4851E+5	4.5156	0.0464	+23.2
368.95	8.4901E+5	4.5071	0.0462	+17.2
369.13	8.4951E+5	4.5118	0.0463	+28.1
369.30	8.5001E+5	4.5014	0.0467	-330.8
369.48	8.5051E+5	4.5159	0.0461	+23.2
369.65	8.5101E+5	4.5099	Inf	+26.9
369.81	8.5151E+5	4.5214	0.0472	+16.7
370.00	8.5201E+5	4.5128	Inf	+3.2
370.15	8.5251E+5	4.5212	0.0459	+19.0
370.35	8.5301E+5	4.5128	0.0457	-333.3
370.50	8.5351E+5	4.5170	0.0467	+16.3
370.66	8.5401E+5	4.5085	0.0465	-344.8
370.85	8.5451E+5	4.5096	0.0461	+24.6
371.01	8.5501E+5	4.5153	0.0470	-343.1
371.21	8.5551E+5	4.5184	0.0508	+26.2
371.39	8.5601E+5	4.5071	Inf	+25.4
371.58	8.5651E+5	4.5170	Inf	+23.4
371.78	8.5701E+5	4.5128	0.0460	+26.5
371.94	8.5751E+5	4.5142	Inf	+22.8
372.13	8.5801E+5	4.5099	0.0462	-337.6
372.31	8.5851E+5	4.5136	0.0460	+16.4
372.51	8.5901E+5	4.5128	0.0465	-348.1
372.67	8.5951E+5	4.5113	Inf	+6.5
372.86	8.6001E+5	4.5120	0.0487	+18.7
373.07	8.6051E+5	4.5085	0.0458	-335.2
373.27	8.6101E+5	4.5094	0.0466	-341.0
373.47	8.6151E+5	4.5164	0.0464	-335.7
373.66	8.6201E+5	4.5071	0.0456	-337.8
373.86	8.6251E+5	4.5096	Inf	+18.8
374.04	8.6301E+5	4.5183	0.0457	+24.9
374.22	8.6351E+5	4.5057	Inf	+21.1
374.42	8.6401E+5	4.5153	0.0449	+25.7
374.61	8.6451E+5	4.5099	0.0453	+24.4
374.79	8.6501E+5	4.5133	0.0452	+21.2
374.99	8.6551E+5	4.5043	0.0453	+24.1
375.17	8.6601E+5	4.5106	0.0450	+17.8
375.35	8.6651E+5	4.5088	0.0475	-332.9
375.54	8.6701E+5	4.5221	0.0460	-332.8
375.74	8.6751E+5	4.5071	0.0446	+14.1
375.95	8.6801E+5	4.5057	0.0456	-340.3
376.12	8.6851E+5	4.5154	0.0439	+24.0
376.33	8.6901E+5	4.5071	Inf	+21.6
376.52	8.6951E+5	4.5113	0.0446	-337.9
376.70	8.7001E+5	4.5055	0.0456	-340.9
376.88	8.7051E+5	4.5081	0.0455	+27.7
377.05	8.7101E+5	4.5140	Inf	+22.8
377.25	8.7151E+5	4.5113	0.0441	+21.0
377.45	8.7201E+5	4.5071	0.0460	-334.4
377.63	8.7251E+5	4.5145	Inf	+370.1
377.83	8.7301E+5	4.5156	0.0447	+25.3
378.01	8.7351E+5	4.5142	0.0451	+29.3
378.20	8.7401E+5	4.5142	0.0453	-331.1
378.36	8.7451E+5	4.5113	0.0450	+19.2
378.55	8.7501E+5	4.5111	0.0444	-336.8
378.75	8.7551E+5	4.5156	0.0440	+11.2
378.93	8.7601E+5	4.5142	0.0449	-340.4
379.11	8.7651E+5	4.5057	0.0500	+11.0
379.33	8.7701E+5	4.5087	0.0447	+17.5
379.51	8.7751E+5	4.5046	0.0446	-337.1
379.69	8.7801E+5	4.5060	Inf	+18.5
379.86	8.7851E+5	4.5152	0.0438	+17.9
380.06	8.7901E+5	4.5043	0.0439	+22.1
380.26	8.7951E+5	4.5087	0.0441	-342.5
380.43	8.8001E+5	4.5037	0.0441	+24.8
380.61	8.8051E+5	4.5051	0.0446	+29.4
380.79	8.8101E+5	4.5153	Inf	+21.0
380.96	8.8151E+5	4.5113	0.0441	-339.2
381.18	8.8201E+5	4.5152	0.0449	-346.3
381.37	8.8251E+5	4.5085	Inf	+21.4
381.57	8.8301E+5	4.5077	0.0436	+15.4
381.76	8.8351E+5	4.5207	0.0438	+14.0
381.94	8.8401E+5	4.5043	0.0441	+17.3
382.14	8.8451E+5	4.5104	0.0433	+19.4
382.31	8.8501E+5	4.5122	0.0462	-340.9
382.50	8.8551E+5	4.5099	0.0443	+21.7
382.72	8.8601E+5	4.5112	Inf	+19.5
382.89	8.8651E+5	4.5095	0.0443	+27.8
383.07	8.8701E+5	4.5135	Inf	+9.9
383.25	8.8751E+5	4.5113	0.0436	-337.5
383.44	8.8801E+5	4.5136	0.0438	+24.9
383.64	8.8851E+5	4.5085	0.0429	-340.7
383.83	8.8901E+5	4.5108	0.0424	+19.4
383.98	8.8951E+5	4.5150	0.0431	+21.0
384.19	8.9001E+5	4.5128	Inf	+9.5
384.35	8.9051E+5	4.5142	0.0437	+20.0
384.55	8.9101E+5	4.5085	0.0427	-336.2
384.75	8.9151E+5	4.5007	Inf	+19.8
384.92	8.9201E+5	4.5194	Inf	+22.0
385.12	8.9251E+5	4.5142	0.0444	-338.5
385.30	8.9301E+5	4.5071	0.0430	+14.8
385.50	8.9351E+5	4.5106	0.0432	+15.9
385.70	8.9401E+5	4.5079	Inf	+20.1
385.86	8.9451E+5	4.5088	Inf	+20.5
386.05	8.9501E+5	4.5079	0.0440	-334.3
386.21	8.9551E+5	4.5087	Inf	+3.2
386.38	8.9601E+5	4.5082	Inf	+18.6
386.56	8.9651E+5	4.5119	0.0425	+18.0
386.76	8.9701E+5	4.5014	0.0428	+20.3
386.95	8.9751E+5	4.5077	0.0428	+17.0
387.13	8.9801E+5	4.5082	0.0423	+17.8
387.30	8.9851E+5	4.4988	Inf	+18.5
387.48	8.9901E+5	4.5085	0.0435	+24.9
387.66	8.9951E+5	4.5047	Inf	+19.6
387.83	9.0001E+5	4.5085	0.0432	+25.5
388.01	9.0051E+5	4.5161	0.0423	+19.9
388.21	9.0101E+5	4.5043	Inf	+363.7
388.39	9.0151E+5	4.5013	Inf	+18.2
388.57	9.0201E+5	4.5065	0.0429	+16.4
388.74	9.0251E+5	4.5012	0.0419	+20.4
388.93	9.0301E+5	4.5089	0.0435	-339.4
389.11	9.0351E+5	4.5082	Inf	+7.8
389.27	9.0401E+5	4.5112	Inf	+23.4
389.46	9.0451E+5	4.4990	0.0427	-353.0
389.64	9.0501E+5	4.5068	Inf	+25.9
389.81	9.0551E+5	4.5058	0.0424	-338.0
389.99	9.0601E+5	4.5019	0.0437	+17.9
390.17	9.0651E+5	4.5040	0.0482	+3.3
390.36	9.0701E+5	4.5026	0.0439	+16.7
390.55	9.0751E+5	4.5033	Inf	+364.6
390.72	9.0801E+5	4.5109	0.0440	+20.5
390.89	9.0851E+5	4.5030	0.0426	+12.7
391.07	9.0901E+5	4.5095	0.0418	-338.7
391.24	9.0951E+5	4.5071	0.0440	-336.6
391.44	9.1001E+5	4.5057	Inf	+13.4
391.60	9.1051E+5	4.4958	0.0380	+9.4
391.77	9.1101E+5	4.5020	Inf	+12.0
391.95	9.1151E+5	4.5040	Inf	+20.6
392.12	9.1201E+5	4.5072	Inf	+24.9
392.28	9.1251E+5	4.5050	Inf	+3.6
392.47	9.1301E+5	4.5023	0.0430	-345.8
392.65	9.1351E+5	4.4976	Inf	+4.6
392.83	9.1401E+5	4.5006	0.0421	+12.8
393.00	9.1451E+5	4.5130	0.0415	+16.3
393.20	9.1501E+5	4.5014	0.0425	+13.7
393.42	9.1551E+5	4.5010	0.0422	+16.5
393.58	9.1601E+5	4.5044	0.0415	+15.8
393.76	9.1651E+5	4.5038	0.0421	-340.4
393.96	9.1701E+5	4.5058	0.0425	+15.1
394.11	9.1751E+5	4.4964	0.0438	+17.5
394.30	9.1801E+5	4.4997	Inf	+14.9
394.48	9.1851E+5	4.4986	0.0419	+22.3
394.66	9.1901E+5	4.4966	0.0414	+16.2
394.84	9.1951E+5	4.4989	0.0413	+18.5
395.03	9.2001E+5	4.5092	0.0417	+28.0
395.21	9.2051E+5	4.5044	Inf	+15.0
395.39	9.2101E+5	4.5012	0.0411	+23.7
395.58	9.2151E+5	4.5098	0.0417	-343.9
395.76	9.2201E+5	4.4979	0.0429	-331.3
395.93	9.2251E+5	4.5026	0.0412	-342.4
396.09	9.2301E+5	4.5048	0.0419	-341.4
396.28	9.2351E+5	4.5061	0.0417	-341.4
396.48	9.2401E+5	4.5070	Inf	+16.8
396.64	9.2451E+5	4.5057	Inf	+14.6
396.81	9.2501E+5	4.5091	Inf	+19.5
396.99	9.2551E+5	4.5005	0.0430	-351.7
397.17	9.2601E+5	4.5055	0.0421	-348.1
397.34	9.2651E+5	4.5082	0.0414	+16.7
397.54	9.2701E+5	4.5050	Inf	-336.7
397.71	9.2751E+5	4.5044	0.0428	-349.1
397.89	9.2801E+5	4.5061	0.0422	-345.8
398.07	9.2851E+5	4.5057	Inf	+26.5
398.24	9.2901E+5	4.5078	0.0412	-335.5
398.40	9.2951E+5	4.5012	0.0415	+10.7
398.59	9.3001E+5	4.4949	Inf	-2.9
398.75	9.3051E+5	4.5017	0.0415	-343.8
398.94	9.3101E+5	4.5064	0.0438	+12.9
399.12	9.3151E+5	4.5067	0.0432	-349.6
399.29	9.3201E+5	4.4972	0.0421	-343.9
399.49	9.3251E+5	4.4999	Inf	+9.9
399.65	9.3301E+5	4.5007	Inf	+24.5
399.82	9.3351E+5	4.5088	0.0424	+20.9
400.00	9.3401E+5	4.4965	0.0409	+16.1
400.18	9.3451E+5	4.5016	0.0427	-346.2
400.37	9.3501E+5	4.5082	Inf	+361.3
400.55	9.3551E+5	4.5040	Inf	+15.0
400.72	9.3601E+5	4.5088	0.0429	-346.9
400.88	9.3651E+5	4.5099	0.0424	-343.8
401.06	9.3701E+5	4.5021	0.0412	+20.1
401.25	9.3751E+5	4.4988	0.0409	-347.5
401.41	9.3801E+5	4.4992	0.0406	+15.5
401.60	9.3851E+5	4.4958	Inf	+362.9
401.76	9.3901E+5	4.5034	Inf	+4.1
401.93	9.3951E+5	4.5113	Inf	+3.0
402.11	9.4001E+5	4.5006	0.0406	+15.7
402.28	9.4051E+5	4.5119	0.0440	+21.7
402.48	9.4101E+5	4.5029	0.0404	+13.4
402.69	9.4151E+5	4.5082	Inf	+19.1
402.86	9.4201E+5	4.5064	0.0413	+14.8
403.03	9.4251E+5	4.4973	0.0414	+15.9
403.21	9.4301E+5	4.5000	Inf	+365.3
403.38	9.4351E+5	4.4952	0.0424	-349.3
403.56	9.4401E+5	4.4962	Inf	+17.0
403.74	9.4451E+5	4.4999	0.0408	+15.3
403.91	9.4501E+5	4.5006	0.0427	-347.2
404.11	9.4551E+5	4.5119	0.0411	+9.5
404.32	9.4601E+5	4.5000	0.0418	-340.1
404.52	9.4651E+5	4.4973	0.0408	+18.4
404.69	9.4701E+5	4.5026	0.0418	-347.4
404.87	9.4751E+5	4.4958	Inf	-332.7
405.04	9.4801E+5	4.5057	Inf	+22.9
405.21	9.4851E+5	4.4972	Inf	+16.7
405.39	9.4901E+5	4.5017	Inf	+366.2
405.56	9.4951E+5	4.4997	0.0414	+17.8
405.74	9.5001E+5	4.5024	Inf	-331.0
405.92	9.5051E+5	4.5010	0.0412	+14.9
406.09	9.5101E+5	4.4954	Inf	+370.6
406.25	9.5151E+5	4.5057	0.0405	+17.1
406.44	9.5201E+5	4.4980	0.0414	-346.4
406.60	9.5251E+5	4.5074	0.0409	-340.8
406.77	9.5301E+5	4.4947	Inf	+353.8
406.94	9.5351E+5	4.5088	0.0413	+9.5
407.10	9.5401E+5	4.4931	0.0409	+9.5
407.27	9.5451E+5	4.5065	0.0429	-348.5
407.47	9.5501E+5	4.5027	0.0427	+8.6
407.63	9.5551E+5	4.4969	Inf	+364.6
407.80	9.5601E+5	4.5074	0.0409	-350.0
408.00	9.5651E+5	4.4939	0.0407	+13.5
408.17	9.5701E+5	4.4995	Inf	+7.2
408.33	9.5751E+5	4.4956	0.0415	-348.6
408.52	9.5801E+5	4.4978	Inf	+2.9
408.68	9.5851E+5	4.5041	0.0401	+16.4
408.86	9.5901E+5	4.5060	Inf	+20.5
409.05	9.5951E+5	4.5055	Inf	+360.9
409.21	9.6001E+5	4.4997	0.0407	+22.1
409.40	9.6051E+5	4.5013	0.0393	+10.9
409.60	9.6101E+5	4.4969	0.0415	+12.4
409.78	9.6151E+5	4.4949	0.0404	+13.3
409.94	9.6201E+5	4.5009	Inf	+9.0
410.13	9.6251E+5	4.4914	Inf	+15.6
410.30	9.6301E+5	4.5033	Inf	+367.1
410.46	9.6351E+5	4.4934	Inf	+16.5
410.64	9.6401E+5	4.5003	0.0395	+11.8
410.83	9.6451E+5	4.4990	0.0418	-344.7
411.01	9.6501E+5	4.5002	0.0412	+13.5
411.21	9.6551E+5	4.4965	0.0396	+15.7
411.39	9.6601E+5	4.5009	0.0397	+14.2
411.56	9.6651E+5	4.5016	0.0404	+18.6
411.74	9.6701E+5	4.5077	0.0400	+13.8
411.93	9.6751E+5	4.4954	0.0415	-347.8
412.11	9.6801E+5	4.5040	0.0411	-351.5
412.26	9.6851E+5	4.5013	0.0414	+12.9
412.42	9.6901E+5	4.5010	0.0405	+17.8
412.59	9.6951E+5	4.5048	0.0396	+14.5
412.77	9.7001E+5	4.5021	0.0409	+18.3
412.97	9.7051E+5	4.5043	0.0403	+18.7
413.16	9.7101E+5	4.5024	Inf	+366.5
413.32	9.7151E+5	4.5010	Inf	+366.8
413.50	9.7201E+5	4.4947	Inf	+12.0
413.67	9.7251E+5	4.4990	Inf	+17.0
413.82	9.7301E+5	4.4966	Inf	+12.2
414.00	9.7351E+5	4.5051	0.0405	+17.9
414.19	9.7401E+5	4.4976	0.0404	-349.1
414.35	9.7451E+5	4.5002	Inf	+15.5
414.54	9.7501E+5	4.4890	0.0384	+11.4
414.72	9.7551E+5	4.4989	0.0406	-347.4
414.90	9.7601E+5	4.5023	Inf	+19.5
415.07	9.7651E+5	4.4973	0.0396	+14.2
415.25	9.7701E+5	4.4986	0.0404	+13.6
415.43	9.7751E+5	4.4911	0.0394	+9.7
415.63	9.7801E+5	4.5029	0.0405	-347.5
415.82	9.7851E+5	4.4930	0.0404	+20.9
415.98	9.7901E+5	4.4958	0.0394	+11.8
416.17	9.7951E+5	4.4887	0.0387	+15.6
416.37	9.8001E+5	4.4944	0.0396	+8.7
416.55	9.8051E+5	4.4930	Inf	+13.9
416.71	9.8101E+5	4.4972	Inf	+20.7
416.90	9.8151E+5	4.4972	Inf	+13.6
417.06	9.8201E+5	4.4972	0.0426	-351.5
417.25	9.8251E+5	4.5043	0.0413	-352.9
417.45	9.8301E+5	4.5043	Inf	+19.5
417.61	9.8351E+5	4.5057	0.0409	-351.2
417.78	9.8401E+5	4.4915	0.0410	-340.7
417.96	9.8451E+5	4.5043	Inf	+363.7
418.13	9.8501E+5	4.5000	0.0417	+5.0
418.30	9.8551E+5	4.5014	0.0400	-340.7
418.48	9.8601E+5	4.5029	0.0404	-345.1
418.68	9.8651E+5	4.4972	0.0399	+14.2
418.86	9.8701E+5	4.4901	0.0401	+19.9
419.02	9.8751E+5	4.4958	0.0392	+16.8
419.21	9.8801E+5	4.4915	0.0392	+9.8
419.37	9.8851E+5	4.4944	Inf	+366.8
419.54	9.8901E+5	4.4958	0.0396	+6.9
419.73	9.8951E+5	4.4958	Inf	-1.6
419.89	9.9001E+5	4.5014	Inf	-339.0
420.06	9.9051E+5	4.4915	0.0393	+16.6
420.24	9.9101E+5	4.4930	0.0395	+8.2
420.41	9.9151E+5	4.4930	0.0400	-349.6
420.57	9.9201E+5	4.4972	0.0393	+16.3
420.74	9.9251E+5	4.5014	0.0396	+18.3
420.92	9.9301E+5	4.4972	Inf	-9.5
421.09	9.9351E+5	4.4958	0.0402	+6.8
421.25	9.9401E+5	4.4972	Inf	+363.6
421.44	9.9451E+5	4.5014	0.0395	+10.6
421.60	9.9501E+5	4.4873	Inf	+11.8
421.77	9.9551E+5	4.4986	0.0410	+18.2
421.97	9.9601E+5	4.4972	0.0395	+10.0
422.15	9.9651E+5	4.4972	0.0388	+14.0
422.34	9.9701E+5	4.4915	0.0377	+8.4
422.50	9.9751E+5	4.4972	Inf	+366.3
422.67	9.9801E+5	4.4901	0.0407	-354.6
422.85	9.9851E+5	4.4915	0.0391	+9.7
423.03	9.9901E+5	4.4873	0.0393	+14.9
423.22	9.9951E+5	4.5043	Inf	+14.8
423.38	1.0000E+6	4.4915	Inf	-338.0
423.55	1.0005E+6	4.4930	0.0390	+12.4
423.72	1.0010E+6	4.5043	Inf	+10.5
423.88	1.0015E+6	4.4958	0.0390	+12.1
424.05	1.0020E+6	4.4986	0.0399	+13.2
424.23	1.0025E+6	4.4944	0.0387	+10.3
424.42	1.0030E+6	4.5029	0.0403	-344.3
424.60	1.0035E+6	4.4915	0.0398	+12.7
424.78	1.0040E+6	4.4887	0.0384	+12.8
424.98	1.0045E+6	4.4958	0.0399	-344.4
425.16	1.0050E+6	4.5029	Inf	+10.8
425.33	1.0055E+6	4.5043	0.0413	-349.3
425.53	1.0060E+6	4.5142	0.0397	+16.1
425.73	1.0065E+6	4.5085	Inf	+12.5
425.91	1.0070E+6	4.5099	Inf	+19.3
426.08	1.0075E+6	4.5071	0.0394	+6.3
426.26	1.0080E+6	4.5071	0.0398	-353.5
426.43	1.0085E+6	4.5128	Inf	+0.0
426.61	1.0090E+6	4.5057	0.0389	+11.8
426.83	1.0095E+6	4.5085	Inf	+20.1
426.99	1.0100E+6	4.5057	0.0401	-343.7
427.18	1.0105E+6	4.5057	0.0390	-346.3
427.36	1.0110E+6	4.5170	0.0415	-348.7
427.56	1.0115E+6	4.5029	Inf	+12.9
427.74	1.0120E+6	4.5085	0.0392	+10.7
427.92	1.0125E+6	4.5071	0.0397	+16.0
428.11	1.0130E+6	4.5142	0.0394	+3.4
428.29	1.0135E+6	4.5113	0.0388	+13.7
428.49	1.0140E+6	4.5029	0.0378	+15.7
428.66	1.0145E+6	4.5029	0.0402	-352.7
428.84	1.0150E+6	4.5043	Inf	+13.4
429.00	1.0155E+6	4.5227	0.0402	-353.6
429.19	1.0160E+6	4.5071	Inf	+19.1
429.37	1.0165E+6	4.5142	0.0352	+3.7
429.57	1.0170E+6	4.5099	0.0390	+9.1
429.77	1.0175E+6	4.5099	Inf	+14.3
429.95	1.0180E+6	4.5057	0.0400	-351.8
430.12	1.0185E+6	4.5071	0.0396	-356.9
430.29	1.0190E+6	4.5099	0.0391	+2.6
430.45	1.0195E+6	4.5085	0.0404	-355.2
430.65	1.0200E+6	4.5085	0.0399	-350.5
430.83	1.0205E+6	4.5085	Inf	-345.3
431.00	1.0210E+6	4.5142	Inf	+15.2
431.20	1.0215E+6	4.5085	0.0384	+13.3
431.40	1.0220E+6	4.5128	0.0396	+9.0
431.60	1.0225E+6	4.5071	Inf	+10.9
431.78	1.0230E+6	4.5085	Inf	+365.3
431.96	1.0235E+6	4.5113	Inf	+7.3
432.13	1.0240E+6	4.5029	0.0384	+12.9
432.30	1.0245E+6	4.5071	0.0388	+8.9
432.46	1.0250E+6	4.5085	0.0396	-348.0
432.65	1.0255E+6	4.5014	Inf	+13.1
432.81	1.0260E+6	4.5085	0.0384	+13.7
433.00	1.0265E+6	4.5099	Inf	+16.2
433.18	1.0270E+6	4.5014	0.0382	+15.3
433.35	1.0275E+6	4.5099	Inf	+14.8
433.51	1.0280E+6	4.5057	0.0414	-350.9
433.71	1.0285E+6	4.5085	Inf	-347.4
433.88	1.0290E+6	4.5071	0.0412	-353.0
434.03	1.0295E+6	4.5057	Inf	+4.4
434.18	1.0300E+6	4.5113	Inf	-0.7
434.36	1.0305E+6	4.5057	0.0390	+13.2
434.53	1.0310E+6	4.5029	0.0384	+13.9
434.71	1.0315E+6	4.5128	0.0389	-348.9
434.91	1.0320E+6	4.5142	0.0385	-344.6
435.08	1.0325E+6	4.5057	0.0389	+9.7
435.26	1.0330E+6	4.5029	Inf	+365.6
435.43	1.0335E+6	4.5071	Inf	+10.6
435.61	1.0340E+6	4.5085	0.0417	-356.5
435.79	1.0345E+6	4.5071	0.0386	-344.6
435.97	1.0350E+6	4.5057	0.0379	+6.2
436.16	1.0355E+6	4.5029	0.0388	+14.9
436.32	1.0360E+6	4.5071	0.0387	-353.7
436.47	1.0365E+6	4.5113	0.0389	-353.5
436.64	1.0370E+6	4.5170	0.0386	+15.0
436.84	1.0375E+6	4.5043	0.0383	+9.7
437.02	1.0380E+6	4.5085	0.0388	-349.1
437.19	1.0385E+6	4.5014	Inf	+6.5
437.37	1.0390E+6	4.5057	0.0386	-352.0
437.54	1.0395E+6	4.5071	0.0383	+11.0
437.70	1.0400E+6	4.5029	0.0375	+11.8
437.89	1.0405E+6	4.5043	0.0386	+12.7
438.09	1.0410E+6	4.5057	0.0394	+6.5
438.27	1.0415E+6	4.5043	0.0378	+15.0
438.45	1.0420E+6	4.5099	0.0388	+9.2
438.62	1.0425E+6	4.5014	0.0373	+9.9
438.82	1.0430E+6	4.5000	0.0390	-355.3
439.00	1.0435E+6	4.5071	Inf	-5.3
439.17	1.0440E+6	4.5113	0.0380	+6.2
439.37	1.0445E+6	4.5085	0.0397	-355.3
439.53	1.0450E+6	4.5043	0.0397	-352.1
439.70	1.0455E+6	4.5057	0.0388	+19.6
439.88	1.0460E+6	4.5000	0.0380	+12.0
440.06	1.0465E+6	4.5057	0.0408	-356.6
440.25	1.0470E+6	4.5057	0.0378	+18.8
440.43	1.0475E+6	4.5029	0.0387	+5.5
440.60	1.0480E+6	4.5000	Inf	-345.5
440.78	1.0485E+6	4.5043	0.0382	+16.2
440.95	1.0490E+6	4.4972	0.0399	-352.6
441.13	1.0495E+6	4.5057	0.0376	+8.3
441.33	1.0500E+6	4.5029	0.0395	-350.4
441.50	1.0505E+6	4.5014	Inf	+17.4
441.66	1.0510E+6	4.5071	Inf	+7.8
441.83	1.0515E+6	4.5057	0.0387	+16.1
442.03	1.0520E+6	4.5000	Inf	+361.3
442.19	1.0525E+6	4.5029	0.0403	-352.4
442.38	1.0530E+6	4.5043	Inf	+5.7
442.54	1.0535E+6	4.5029	Inf	+2.5
442.73	1.0540E+6	4.5014	Inf	-343.2
442.89	1.0545E+6	4.4958	0.0401	-352.6
443.06	1.0550E+6	4.5085	Inf	+12.5
443.24	1.0555E+6	4.5043	Inf	-8.4
443.41	1.0560E+6	4.5057	Inf	+9.3
443.57	1.0565E+6	4.4958	Inf	-4.4
443.74	1.0570E+6	4.4986	0.0354	+3.4
443.94	1.0575E+6	4.5000	0.0375	+10.2
444.12	1.0580E+6	4.5043	0.0376	+3.4
444.29	1.0585E+6	4.5014	Inf	+1.0
444.46	1.0590E+6	4.4972	0.0373	+19.1
444.65	1.0595E+6	4.5029	0.0381	+16.8
444.84	1.0600E+6	4.5043	Inf	+374.7
445.00	1.0605E+6	4.5071	Inf	-2.3
445.19	1.0610E+6	4.5071	0.0381	+7.7
445.35	1.0615E+6	4.5029	Inf	+9.7
445.52	1.0620E+6	4.4986	0.0370	+9.0
445.70	1.0625E+6	4.5000	0.0379	+11.9
445.90	1.0630E+6	4.4930	Inf	+9.9
446.07	1.0635E+6	4.5085	Inf	+7.7
446.24	1.0640E+6	4.5071	0.0347	+2.5
446.42	1.0645E+6	4.4986	0.0375	+11.9
446.62	1.0650E+6	4.4986	0.0380	+13.0
446.79	1.0655E+6	4.5000	0.0374	+15.4
446.97	1.0660E+6	4.5000	0.0381	+9.2
447.15	1.0665E+6	4.5029	0.0394	-352.1
447.35	1.0670E+6	4.5000	0.0365	+11.7
447.53	1.0675E+6	4.5043	0.0380	+3.3
447.72	1.0680E+6	4.5000	0.0371	+8.3
447.90	1.0685E+6	4.4958	Inf	+9.4
448.08	1.0690E+6	4.5000	Inf	+352.5
448.25	1.0695E+6	4.5014	0.0380	+11.2
448.41	1.0700E+6	4.4972	Inf	+361.2
448.60	1.0705E+6	4.4958	0.0386	+3.3
448.76	1.0710E+6	4.5000	Inf	+3.7
448.93	1.0715E+6	4.5029	0.0378	+8.1
449.10	1.0720E+6	4.5000	0.0386	-355.2
449.26	1.0725E+6	4.5029	0.0387	-347.5
449.43	1.0730E+6	4.4972	Inf	+12.0
449.60	1.0735E+6	4.5029	0.0367	+7.0
449.78	1.0740E+6	4.4986	0.0378	+4.5
449.98	1.0745E+6	4.5043	0.0381	+6.0
450.14	1.0750E+6	4.4972	Inf	+366.4
450.31	1.0755E+6	4.5029	0.0369	+2.9
450.49	1.0760E+6	4.5057	Inf	+16.3
450.68	1.0765E+6	4.5000	0.0378	+5.8
450.86	1.0770E+6	4.4986	0.0381	-357.5
451.02	1.0775E+6	4.5029	0.0380	+2.7
451.19	1.0780E+6	4.4972	Inf	+361.2
451.37	1.0785E+6	4.5029	0.0390	-356.9
451.56	1.0790E+6	4.5057	0.0379	-349.1
451.74	1.0795E+6	4.5071	Inf	+10.9
451.91	1.0800E+6	4.4986	0.0396	-357.9
452.09	1.0805E+6	4.5029	Inf	-347.0
452.26	1.0810E+6	4.5000	0.0380	+14.4
452.44	1.0815E+6	4.4930	Inf	-0.4
452.61	1.0820E+6	4.4986	0.0380	+14.2
452.79	1.0825E+6	4.4958	0.0376	-351.6
452.95	1.0830E+6	4.4986	0.0367	+12.5
453.14	1.0835E+6	4.4901	0.0374	+4.5
453.30	1.0840E+6	4.5000	Inf	-351.2
453.49	1.0845E+6	4.4944	0.0373	+10.3
453.65	1.0850E+6	4.5014	Inf	+13.6
453.82	1.0855E+6	4.4986	0.0372	-354.7
454.00	1.0860E+6	4.5029	Inf	+7.1
454.17	1.0865E+6	4.4958	0.0369	+11.0
454.33	1.0870E+6	4.4972	0.0393	+8.6
454.50	1.0875E+6	4.4986	Inf	+10.2
454.67	1.0880E+6	4.5000	0.0392	-357.7
454.82	1.0885E+6	4.5000	0.0387	-351.0
455.00	1.0890E+6	4.4930	Inf	+354.9
455.17	1.0895E+6	4.4944	Inf	+17.5
455.35	1.0900E+6	4.5014	Inf	+6.3
455.52	1.0905E+6	4.4958	0.0372	+4.3
455.70	1.0910E+6	4.4944	0.0369	+7.9
455.86	1.0915E+6	4.5014	0.0371	+7.9
456.03	1.0920E+6	4.5057	0.0382	+12.8
456.21	1.0925E+6	4.4958	0.0368	+0.6
456.39	1.0930E+6	4.4986	Inf	-2.6
456.56	1.0935E+6	4.5000	Inf	+364.1
456.75	1.0940E+6	4.5057	0.0377	+6.7
456.93	1.0945E+6	4.4958	0.0382	+7.1
457.10	1.0950E+6	4.4972	0.0369	+16.7
457.28	1.0955E+6	4.4972	Inf	-351.1
457.46	1.0960E+6	4.5057	Inf	+372.5
457.63	1.0965E+6	4.4972	Inf	-10.3
457.79	1.0970E+6	4.5014	0.0376	+5.9
457.98	1.0975E+6	4.4944	0.0370	+7.3
458.18	1.0980E+6	4.4930	0.0374	+7.1
458.34	1.0985E+6	4.5000	0.0365	+10.5
458.51	1.0990E+6	4.5000	0.0350	+4.0
458.68	1.0995E+6	4.4986	0.0374	+11.5
458.87	1.1000E+6	4.4944	0.0366	+4.6
459.04	1.1005E+6	4.4930	Inf	+363.2
459.19	1.1010E+6	4.4958	0.0371	+8.7
459.36	1.1015E+6	4.4930	Inf	-358.6
459.54	1.1020E+6	4.5014	0.0377	+1.2
459.72	1.1025E+6	4.4986	Inf	+13.3
459.89	1.1030E+6	4.4944	0.0377	+14.9
460.06	1.1035E+6	4.4986	0.0382	+13.9
460.24	1.1040E+6	4.4915	0.0371	+4.0
460.40	1.1045E+6	4.4901	Inf	+364.6
460.57	1.1050E+6	4.4986	Inf	-355.8
460.72	1.1055E+6	4.5014	0.0379	-355.8
460.92	1.1060E+6	4.4887	Inf	+359.8
461.09	1.1065E+6	4.4944	Inf	-346.4
461.25	1.1070E+6	4.4944	0.0387	-359.2
461.42	1.1075E+6	4.5029	Inf	-347.2
461.59	1.1080E+6	4.4930	0.0368	+6.0
461.79	1.1085E+6	4.4901	0.0371	+7.2
461.95	1.1090E+6	4.5014	0.0385	-359.8
462.13	1.1095E+6	4.4887	0.0367	+6.8
462.32	1.1100E+6	4.4958	Inf	+369.0
462.50	1.1105E+6	4.4930	0.0388	+9.6
462.68	1.1110E+6	4.4930	0.0364	+13.4
462.87	1.1115E+6	4.4930	Inf	-355.2
463.03	1.1120E+6	4.4930	0.0373	+7.4
463.21	1.1125E+6	4.4972	Inf	+360.6
463.38	1.1130E+6	4.4915	0.0373	+12.8
463.55	1.1135E+6	4.4986	0.0370	+3.4
463.71	1.1140E+6	4.4958	Inf	-1.6
463.90	1.1145E+6	4.4901	0.0370	+6.2
464.06	1.1150E+6	4.4958	0.0370	+13.9
464.23	1.1155E+6	4.4915	0.0365	+8.8
464.39	1.1160E+6	4.4944	0.0372	+3.6
464.56	1.1165E+6	4.4958	Inf	+12.1
464.71	1.1170E+6	4.4986	0.0366	+7.8
464.88	1.1175E+6	4.4944	0.0372	+6.2
465.04	1.1180E+6	4.4887	Inf	-2.8
465.23	1.1185E+6	4.4915	0.0373	+10.3
465.39	1.1190E+6	4.4944	Inf	-3.0
465.56	1.1195E+6	4.4986	0.0369	+8.9
465.73	1.1200E+6	4.4972	0.0369	+10.7
465.91	1.1205E+6	4.4859	0.0370	+9.3
466.06	1.1210E+6	4.4958	Inf	-2.4
466.21	1.1215E+6	4.4901	Inf	+356.4
466.38	1.1220E+6	4.4887	0.0373	-1.8
466.54	1.1225E+6	4.4887	0.0364	+6.1
466.72	1.1230E+6	4.4930	0.0377	+14.5
466.91	1.1235E+6	4.4915	0.0377	+6.7
467.07	1.1240E+6	4.4944	0.0368	-355.9
467.26	1.1245E+6	4.4930	0.0371	+7.5
467.44	1.1250E+6	4.4944	Inf	-9.1
467.61	1.1255E+6	4.4930	0.0382	+11.4
467.79	1.1260E+6	4.4972	0.0379	+8.5
467.95	1.1265E+6	4.4816	Inf	-342.6
468.15	1.1270E+6	4.4944	Inf	+2.2
468.34	1.1275E+6	4.4930	Inf	-353.9
468.50	1.1280E+6	4.4873	0.0367	+6.3
468.69	1.1285E+6	4.4859	0.0364	+9.6
468.85	1.1290E+6	4.4887	0.0370	+9.4
469.02	1.1295E+6	4.4873	0.0370	+0.0
469.19	1.1300E+6	4.4972	0.0376	-352.1
469.37	1.1305E+6	4.4930	Inf	+364.5
469.55	1.1310E+6	4.4944	0.0365	+11.2
469.74	1.1315E+6	4.4915	0.0356	+9.2
469.92	1.1320E+6	4.4930	0.0367	-2.2
470.10	1.1325E+6	4.4873	0.0368	+10.4
470.25	1.1330E+6	4.4958	Inf	+359.6
470.43	1.1335E+6	4.4873	0.0381	+13.9
470.62	1.1340E+6	4.4915	Inf	+362.9
470.77	1.1345E+6	4.4944	0.0362	+6.8
470.95	1.1350E+6	4.4944	0.0370	+9.6
471.13	1.1355E+6	4.4901	Inf	-21.3
471.30	1.1360E+6	4.4915	0.0366	+13.3
471.46	1.1365E+6	4.4901	0.0364	-0.6
471.63	1.1370E+6	4.4972	Inf	+344.6
471.80	1.1375E+6	4.4915	0.0378	+10.0
471.96	1.1380E+6	4.4944	0.0382	-356.7
472.13	1.1385E+6	4.4915	0.0358	+4.5
472.31	1.1390E+6	4.4972	0.0361	+6.8
472.50	1.1395E+6	4.4887	0.0373	+9.6
472.66	1.1400E+6	4.4887	0.0370	+9.7
472.81	1.1405E+6	4.4859	Inf	+357.1
472.98	1.1410E+6	4.4901	0.0378	-354.3
473.16	1.1415E+6	4.4887	Inf	+355.5
473.33	1.1420E+6	4.4930	0.0365	+3.3
473.51	1.1425E+6	4.4873	Inf	+370.5
473.68	1.1430E+6	4.4915	0.0366	-352.4
473.84	1.1435E+6	4.4944	0.0365	+0.8
474.03	1.1440E+6	4.4859	0.0370	+1.2
474.19	1.1445E+6	4.4873	0.0359	+9.5
474.36	1.1450E+6	4.4944	0.0363	+7.2
474.54	1.1455E+6	4.4887	0.0364	+6.8
474.71	1.1460E+6	4.4944	0.0385	-360.4
474.91	1.1465E+6	4.4845	Inf	+13.2
475.07	1.1470E+6	4.4915	0.0371	+3.1
475.24	1.1475E+6	4.4873	0.0369	+6.8
475.40	1.1480E+6	4.4873	0.0376	-356.5
475.61	1.1485E+6	4.4944	0.0373	+3.1
475.79	1.1490E+6	4.4873	Inf	+352.8
475.95	1.1495E+6	4.4901	Inf	+362.3
476.11	1.1500E+6	4.4887	0.0360	+8.5
476.29	1.1505E+6	4.4915	Inf	+358.4
476.47	1.1510E+6	4.4873	0.0359	+10.4
476.64	1.1515E+6	4.4930	0.0353	+5.2
476.80	1.1520E+6	4.4901	0.0367	+10.8
476.99	1.1525E+6	4.4944	0.0379	+8.1
477.19	1.1530E+6	4.4887	Inf	+4.1
477.35	1.1535E+6	4.4859	0.0375	+5.0
477.52	1.1540E+6	4.4915	0.0371	+7.7
477.70	1.1545E+6	4.4930	0.0363	+3.5
477.88	1.1550E+6	4.4873	Inf	+366.0
478.05	1.1555E+6	4.4915	0.0370	+15.0
478.22	1.1560E+6	4.4901	0.0364	+14.0
478.38	1.1565E+6	4.4887	0.0368	+8.1
478.55	1.1570E+6	4.4915	0.0368	+7.5
478.73	1.1575E+6	4.4986	Inf	+9.8
478.90	1.1580E+6	4.4901	0.0376	+6.7
479.08	1.1585E+6	4.4845	Inf	-349.1
479.25	1.1590E+6	4.4887	Inf	-1.7
479.43	1.1595E+6	4.4915	0.0360	+2.9
479.61	1.1600E+6	4.4873	0.0368	+16.5
479.80	1.1605E+6	4.4901	0.0372	+2.9
479.96	1.1610E+6	4.4915	0.0365	+10.0
480.13	1.1615E+6	4.4845	Inf	+371.5
480.31	1.1620E+6	4.4816	Inf	+9.9
480.50	1.1625E+6	4.4958	Inf	-355.6
480.68	1.1630E+6	4.4788	Inf	+8.4
480.86	1.1635E+6	4.4845	0.0369	+2.5
481.06	1.1640E+6	4.4901	0.0362	+4.4
481.23	1.1645E+6	4.4859	0.0377	-353.9
481.41	1.1650E+6	4.4802	0.0356	-0.6
481.61	1.1655E+6	4.4930	Inf	-6.5
481.79	1.1660E+6	4.4901	Inf	-347.8
481.98	1.1665E+6	4.4873	0.0361	+12.4
482.16	1.1670E+6	4.4887	0.0372	+3.2
482.32	1.1675E+6	4.4944	Inf	-15.7
482.49	1.1680E+6	4.4944	Inf	+1.7
482.67	1.1685E+6	4.4887	0.0372	+8.0
482.84	1.1690E+6	4.4887	0.0354	+10.3
483.02	1.1695E+6	4.4873	0.0363	+6.9
483.21	1.1700E+6	4.4859	0.0363	-1.1
483.37	1.1705E+6	4.4859	0.0367	-353.3
483.56	1.1710E+6	4.4901	0.0358	+8.0
483.74	1.1715E+6	4.4873	Inf	+354.9
483.90	1.1720E+6	4.4930	Inf	+365.1
484.07	1.1725E+6	4.4788	Inf	+2.1
484.24	1.1730E+6	4.4915	0.0358	+2.3
484.44	1.1735E+6	4.4901	0.0363	+11.8
484.62	1.1740E+6	4.4873	0.0370	+10.8
484.79	1.1745E+6	4.4915	0.0368	-358.1
484.95	1.1750E+6	4.4873	0.0371	-358.5
485.13	1.1755E+6	4.4887	0.0359	+7.4
485.32	1.1760E+6	4.4845	0.0365	-355.6
485.50	1.1765E+6	4.4831	Inf	-345.8
485.68	1.1770E+6	4.4930	Inf	+0.8
485.87	1.1775E+6	4.4831	0.0357	-1.3
486.08	1.1780E+6	4.4859	0.0355	-347.3
486.25	1.1785E+6	4.4816	0.0387	-368.3
486.45	1.1790E+6	4.4859	0.0369	-357.2
486.65	1.1795E+6	4.4774	0.0346	+2.5
486.87	1.1800E+6	4.4887	Inf	-0.9
487.05	1.1805E+6	4.4859	Inf	+0.9
487.21	1.1810E+6	4.4774	0.0358	+6.6
487.41	1.1815E+6	4.4887	Inf	+Inf
487.60	1.1820E+6	4.4859	Inf	+369.3
487.78	1.1825E+6	4.4887	Inf	-10.0
487.94	1.1830E+6	4.4845	Inf	+8.7
488.11	1.1835E+6	4.4831	0.0358	+8.1
488.30	1.1840E+6	4.4901	0.0358	+8.1
488.48	1.1845E+6	4.4816	0.0355	+3.6
488.68	1.1850E+6	4.4901	0.0367	+1.5
488.88	1.1855E+6	4.4816	0.0364	-0.2
489.04	1.1860E+6	4.4901	Inf	-354.0
489.23	1.1865E+6	4.4831	0.0361	+6.6
489.43	1.1870E+6	4.4873	Inf	+360.6
489.61	1.1875E+6	4.4887	0.0355	+2.1
489.79	1.1880E+6	4.4802	0.0364	+0.0
489.99	1.1885E+6	4.4816	Inf	+13.7
490.16	1.1890E+6	4.4930	0.0359	+12.0
490.37	1.1895E+6	4.4887	0.0369	+13.5
490.56	1.1900E+6	4.4831	Inf	-346.3
490.74	1.1905E+6	4.4901	0.0363	+10.1
490.90	1.1910E+6	4.4859	0.0359	-357.2
491.07	1.1915E+6	4.4816	0.0356	+10.1
491.27	1.1920E+6	4.4915	Inf	-3.2
491.44	1.1925E+6	4.4859	Inf	-6.7
491.60	1.1930E+6	4.4788	Inf	-355.5
491.79	1.1935E+6	4.4831	0.0359	+8.8
491.94	1.1940E+6	4.4915	Inf	-359.8
492.14	1.1945E+6	4.4845	Inf	+Inf
492.30	1.1950E+6	4.4816	0.0359	+0.2
492.49	1.1955E+6	4.4873	0.0359	+5.8
492.67	1.1960E+6	4.4845	0.0371	+1.1
492.87	1.1965E+6	4.4831	0.0357	+8.4
493.07	1.1970E+6	4.4802	0.0364	+3.0
493.25	1.1975E+6	4.4887	0.0355	+9.9
493.45	1.1980E+6	4.4859	0.0353	+5.2
493.62	1.1985E+6	4.4831	0.0359	+4.5
493.82	1.1990E+6	4.4845	Inf	-4.3
494.00	1.1995E+6	4.4831	0.0374	-360.4
494.20	1.2000E+6	4.4901	0.0365	+10.0
494.38	1.2005E+6	4.4831	Inf	-346.6
494.55	1.2010E+6	4.4873	Inf	+12.7
494.75	1.2015E+6	4.4788	0.0365	-353.5
494.93	1.2020E+6	4.4845	0.0357	+2.2
495.13	1.2025E+6	4.4831	0.0369	-362.2
495.33	1.2030E+6	4.4930	Inf	+Inf
495.51	1.2035E+6	4.4845	Inf	+363.3
495.70	1.2040E+6	4.4816	0.0360	+8.0
495.89	1.2045E+6	4.4873	Inf	-350.7
496.08	1.2050E+6	4.4831	0.0367	-354.6
496.28	1.2055E+6	4.4873	Inf	-356.3
496.46	1.2060E+6	4.4816	Inf	+Inf
496.66	1.2065E+6	4.4859	0.0360	+2.4
496.86	1.2070E+6	4.4831	0.0355	-1.5
497.03	1.2075E+6	4.4788	Inf	-6.1
497.18	1.2080E+6	4.4859	0.0362	+4.1
497.39	1.2085E+6	4.4732	0.0380	-360.9
497.59	1.2090E+6	4.4845	Inf	-357.6
497.77	1.2095E+6	4.4831	Inf	-350.9
497.96	1.2100E+6	4.4802	0.0356	+10.4
498.14	1.2105E+6	4.4788	Inf	-352.2
498.32	1.2110E+6	4.4802	0.0357	+0.9
498.49	1.2115E+6	4.4802	Inf	-350.2
498.66	1.2120E+6	4.4859	0.0355	+3.7
498.82	1.2125E+6	4.4788	0.0362	-351.0
499.02	1.2130E+6	4.4859	0.0355	+5.0
499.24	1.2135E+6	4.4717	0.0352	-0.9
499.42	1.2140E+6	4.4845	Inf	-6.5
499.61	1.2145E+6	4.4802	0.0368	+7.2
499.80	1.2150E+6	4.4831	0.0364	+4.2
499.97	1.2155E+6	4.4845	0.0373	-351.2
500.17	1.2160E+6	4.4831	0.0350	+6.1
500.37	1.2165E+6	4.4845	0.0358	+0.9
500.55	1.2170E+6	4.4845	Inf	-3.1
500.72	1.2175E+6	4.4802	0.0368	+5.7
500.92	1.2180E+6	4.4746	0.0358	+3.9
501.12	1.2185E+6	4.4816	Inf	+352.6
501.28	1.2190E+6	4.4802	0.0354	+9.2
501.45	1.2195E+6	4.4802	0.0359	+7.5
501.62	1.2200E+6	4.4760	0.0371	+8.3
501.80	1.2205E+6	4.4774	Inf	+9.2
501.98	1.2210E+6	4.4845	0.0355	+7.0
502.18	1.2215E+6	4.4760	0.0357	+7.7
502.36	1.2220E+6	4.4831	Inf	-350.8
502.53	1.2225E+6	4.4746	0.0366	+4.8
502.71	1.2230E+6	4.4859	Inf	+14.3
502.91	1.2235E+6	4.4859	Inf	-2.6
503.08	1.2240E+6	4.4788	Inf	-348.1
503.26	1.2245E+6	4.4774	Inf	+13.0
503.43	1.2250E+6	4.4831	0.0355	+9.9
503.61	1.2255E+6	4.4845	Inf	-360.0
503.81	1.2260E+6	4.4760	0.0352	+6.2
503.98	1.2265E+6	4.4845	Inf	+11.0
504.16	1.2270E+6	4.4746	0.0365	+1.3
504.36	1.2275E+6	4.4831	Inf	+350.9
504.53	1.2280E+6	4.4845	Inf	-0.2
504.73	1.2285E+6	4.4689	Inf	-366.4
504.91	1.2290E+6	4.4845	0.0358	+6.2
505.11	1.2295E+6	4.4746	Inf	-3.5
505.29	1.2300E+6	4.4887	0.0368	-356.2
505.49	1.2305E+6	4.4774	0.0368	+8.4
505.69	1.2310E+6	4.4774	0.0358	-1.8
505.87	1.2315E+6	4.4732	Inf	+10.0
506.04	1.2320E+6	4.4802	0.0353	+7.8
506.21	1.2325E+6	4.4816	0.0361	+9.5
506.37	1.2330E+6	4.4788	0.0350	+10.0
506.58	1.2335E+6	4.4746	0.0356	+6.9
506.74	1.2340E+6	4.4788	0.0357	+2.0
506.90	1.2345E+6	4.4788	Inf	-354.7
507.07	1.2350E+6	4.4760	Inf	-10.0
507.22	1.2355E+6	4.4816	Inf	-345.5
507.40	1.2360E+6	4.4802	Inf	+5.3
507.57	1.2365E+6	4.4802	0.0348	+1.1
507.74	1.2370E+6	4.4816	0.0361	-1.1
507.92	1.2375E+6	4.4788	Inf	+3.1
508.09	1.2380E+6	4.4774	0.0357	+4.5
508.29	1.2385E+6	4.4703	0.0363	+7.1
508.47	1.2390E+6	4.4746	Inf	+Inf
508.63	1.2395E+6	4.4746	0.0352	+5.8
508.80	1.2400E+6	4.4831	Inf	-22.5
508.97	1.2405E+6	4.4816	0.0353	+9.0
509.13	1.2410E+6	4.4774	Inf	-370.1
509.30	1.2415E+6	4.4831	Inf	+361.6
509.47	1.2420E+6	4.4788	0.0335	-5.8
509.65	1.2425E+6	4.4802	0.0364	-4.0
509.83	1.2430E+6	4.4816	0.0361	-363.1
510.00	1.2435E+6	4.4816	Inf	-5.0
510.18	1.2440E+6	4.4816	0.0361	+0.0
510.36	1.2445E+6	4.4717	Inf	+2.5
510.53	1.2450E+6	4.4816	Inf	-12.8
510.70	1.2455E+6	4.4788	0.0367	+2.5
510.88	1.2460E+6	4.4760	0.0353	+11.2
511.08	1.2465E+6	4.4802	Inf	-1.3
511.25	1.2470E+6	4.4816	0.0352	+0.0
511.41	1.2475E+6	4.4717	Inf	-358.7
511.58	1.2480E+6	4.4802	0.0364	+2.0
511.76	1.2485E+6	4.4831	0.0352	+6.5
511.96	1.2490E+6	4.4831	Inf	+362.9
512.13	1.2495E+6	4.4774	0.0356	+5.4
512.29	1.2500E+6	4.4689	0.0357	+0.7
512.46	1.2505E+6	4.4703	0.0350	+9.9
512.63	1.2510E+6	4.4746	0.0353	-0.2
512.79	1.2515E+6	4.4788	Inf	+361.1
512.96	1.2520E+6	4.4774	Inf	+Inf
513.13	1.2525E+6	4.4760	0.0348	+2.0
513.29	1.2530E+6	4.4788	0.0357	-3.6
513.46	1.2535E+6	4.4788	Inf	-352.3
513.64	1.2540E+6	4.4618	0.0349	+9.0
513.81	1.2545E+6	4.4746	Inf	+359.3
513.97	1.2550E+6	4.4703	Inf	-356.6
514.14	1.2555E+6	4.4774	Inf	+0.0
514.30	1.2560E+6	4.4774	0.0360	+2.3
514.47	1.2565E+6	4.4760	Inf	-349.9
514.66	1.2570E+6	4.4732	0.0353	+0.5
514.82	1.2575E+6	4.4732	Inf	+7.2
514.99	1.2580E+6	4.4717	0.0351	+12.9
515.15	1.2585E+6	4.4760	0.0367	+2.3
515.34	1.2590E+6	4.4732	0.0359	-2.7
515.54	1.2595E+6	4.4774	Inf	-361.8
515.70	1.2600E+6	4.4774	Inf	+351.4
515.87	1.2605E+6	4.4689	0.0328	+0.5
516.05	1.2610E+6	4.4703	0.0356	+6.1
516.24	1.2615E+6	4.4774	0.0352	+4.5
516.40	1.2620E+6	4.4717	0.0351	+6.3
516.57	1.2625E+6	4.4746	Inf	+4.3
516.73	1.2630E+6	4.4675	Inf	-356.6
516.90	1.2635E+6	4.4802	0.0359	+1.6
517.07	1.2640E+6	4.4746	Inf	+8.0
517.23	1.2645E+6	4.4732	Inf	+356.6
517.40	1.2650E+6	4.4675	Inf	-355.4
517.57	1.2655E+6	4.4760	Inf	+7.1
517.73	1.2660E+6	4.4661	Inf	-18.9
517.90	1.2665E+6	4.4689	0.0354	+7.1
518.07	1.2670E+6	4.4802	0.0353	-0.9
518.23	1.2675E+6	4.4732	0.0356	-354.3
518.38	1.2680E+6	4.4703	Inf	+364.8
518.55	1.2685E+6	4.4689	Inf	-349.9
518.71	1.2690E+6	4.4661	Inf	+351.8
518.88	1.2695E+6	4.4760	0.0344	+1.6
519.08	1.2700E+6	4.4732	Inf	-350.0
519.23	1.2705E+6	4.4717	Inf	-1.1
519.40	1.2710E+6	4.4732	0.0349	+6.6
519.58	1.2715E+6	4.4746	0.0355	+362.3
519.75	1.2720E+6	4.4717	0.0362	+5.3
519.93	1.2725E+6	4.4703	0.0359	+3.4
520.13	1.2730E+6	4.4760	0.0351	+6.9
520.29	1.2735E+6	4.4831	0.0363	-362.3
520.48	1.2740E+6	4.4774	Inf	+365.0
520.64	1.2745E+6	4.4647	0.0359	+8.9
520.83	1.2750E+6	4.4703	0.0334	-0.5
521.01	1.2755E+6	4.4732	0.0348	+0.2
521.19	1.2760E+6	4.4802	Inf	+9.4
521.36	1.2765E+6	4.4703	Inf	+Inf
521.52	1.2770E+6	4.4746	0.0350	+7.6
521.69	1.2775E+6	4.4717	0.0346	+5.8
521.89	1.2780E+6	4.4717	Inf	+0.5
522.06	1.2785E+6	4.4746	0.0362	+4.4
522.24	1.2790E+6	4.4774	0.0357	+5.3
522.42	1.2795E+6	4.4746	Inf	+362.3
522.59	1.2800E+6	4.4703	0.0352	+1.8
522.75	1.2805E+6	4.4746	Inf	+6.9
522.94	1.2810E+6	4.4746	Inf	+2.1
523.10	1.2815E+6	4.4788	0.0352	+8.8
523.25	1.2820E+6	4.4633	0.0354	+4.4
523.42	1.2825E+6	4.4746	0.0351	+9.5
523.59	1.2830E+6	4.4732	0.0347	-1.6
523.75	1.2835E+6	4.4675	0.0330	+9.5
523.94	1.2840E+6	4.4717	0.0356	-360.2
524.10	1.2845E+6	4.4732	0.0355	+4.9
524.27	1.2850E+6	4.4717	Inf	+352.2
524.43	1.2855E+6	4.4774	Inf	-4.9
524.60	1.2860E+6	4.4732	0.0365	+0.9
524.80	1.2865E+6	4.4661	0.0350	+9.2
524.98	1.2870E+6	4.4689	Inf	-352.1
525.15	1.2875E+6	4.4618	Inf	-361.6
525.32	1.2880E+6	4.4689	0.0348	+5.6
525.48	1.2885E+6	4.4675	0.0359	+1.9
525.66	1.2890E+6	4.4732	0.0354	+0.0
525.83	1.2895E+6	4.4732	Inf	+Inf
526.00	1.2900E+6	4.4717	Inf	+353.9
526.15	1.2905E+6	4.4675	Inf	+349.8
526.31	1.2910E+6	4.4661	0.0359	-4.9
526.48	1.2915E+6	4.4633	Inf	+368.8
526.66	1.2920E+6	4.4760	0.0350	+2.1
526.83	1.2925E+6	4.4675	Inf	-4.4
527.00	1.2930E+6	4.4633	0.0347	+4.7
527.16	1.2935E+6	4.4717	0.0341	+1.2
527.35	1.2940E+6	4.4661	Inf	+11.6
527.53	1.2945E+6	4.4647	0.0355	+0.2
527.69	1.2950E+6	4.4633	Inf	-13.5
527.86	1.2955E+6	4.4717	Inf	-360.7
528.03	1.2960E+6	4.4746	0.0354	-3.3
528.19	1.2965E+6	4.4633	Inf	-362.6
528.36	1.2970E+6	4.4689	Inf	+366.8
528.52	1.2975E+6	4.4661	0.0357	+1.2
528.69	1.2980E+6	4.4675	0.0357	+4.9
528.86	1.2985E+6	4.4618	0.0344	-1.9
529.04	1.2990E+6	4.4604	0.0347	-2.3
529.23	1.2995E+6	4.4717	0.0350	+4.7
529.39	1.3000E+6	4.4661	0.0331	+5.4
529.57	1.3005E+6	4.4760	Inf	+371.9
529.74	1.3010E+6	4.4689	0.0359	+9.3
529.92	1.3015E+6	4.4675	Inf	-11.0
530.09	1.3020E+6	4.4675	Inf	+347.3
530.26	1.3025E+6	4.4661	Inf	+345.3
530.42	1.3030E+6	4.4717	Inf	+9.6
530.59	1.3035E+6	4.4689	0.0343	+4.0
530.77	1.3040E+6	4.4774	0.0358	+7.5
530.95	1.3045E+6	4.4675	Inf	-363.8
531.12	1.3050E+6	4.4689	Inf	+6.8
531.27	1.3055E+6	4.4703	0.0353	+1.4
531.43	1.3060E+6	4.4760	Inf	-354.8
531.60	1.3065E+6	4.4717	Inf	-365.9
531.77	1.3070E+6	4.4647	0.0348	+5.9
531.93	1.3075E+6	4.4689	Inf	+353.7
532.10	1.3080E+6	4.4647	0.0353	+2.8
532.25	1.3085E+6	4.4604	0.0351	+0.7
532.42	1.3090E+6	4.4675	0.0340	+7.3
532.60	1.3095E+6	4.4661	Inf	-356.0
532.76	1.3100E+6	4.4675	Inf	+Inf
532.92	1.3105E+6	4.4604	Inf	+344.5
533.08	1.3110E+6	4.4732	Inf	-1.4
533.26	1.3115E+6	4.4703	0.0358	-4.0
533.43	1.3120E+6	4.4746	0.0350	+4.7
533.56	1.3125E+6	4.4548	Inf	-362.4
533.73	1.3130E+6	4.4689	0.0360	+9.5
533.90	1.3135E+6	4.4675	0.0357	+8.2
534.05	1.3140E+6	4.4689	Inf	+10.4
534.21	1.3145E+6	4.4661	0.0334	-3.5
534.38	1.3150E+6	4.4590	Inf	+357.2
534.53	1.3155E+6	4.4633	0.0348	+9.2
534.70	1.3160E+6	4.4604	Inf	-4.3
534.84	1.3165E+6	4.4604	Inf	+368.3
534.98	1.3170E+6	4.4703	Inf	+347.2
535.14	1.3175E+6	4.4548	0.0333	+4.3
535.33	1.3180E+6	4.4675	0.0345	+1.4
535.49	1.3185E+6	4.4647	Inf	+Inf
535.64	1.3190E+6	4.4675	Inf	+Inf
535.79	1.3195E+6	4.4675	Inf	+Inf
535.94	1.3200E+6	4.4661	0.0357	-7.6
536.13	1.3205E+6	4.4689	0.0357	+1.4
536.29	1.3210E+6	4.4675	Inf	-364.1
536.46	1.3215E+6	4.4647	0.0357	+6.2
536.62	1.3220E+6	4.4590	0.0342	+11.0
536.79	1.3225E+6	4.4675	0.0365	+6.9
536.98	1.3230E+6	4.4760	0.0345	+5.7
537.17	1.3235E+6	4.4689	0.0350	+4.8
537.36	1.3240E+6	4.4604	0.0360	-2.9
537.52	1.3245E+6	4.4590	Inf	+Inf
537.69	1.3250E+6	4.4675	Inf	-5.7
537.86	1.3255E+6	4.4604	Inf	+6.7
538.04	1.3260E+6	4.4604	Inf	-1.4
538.21	1.3265E+6	4.4633	0.0349	+5.3
538.37	1.3270E+6	4.4661	0.0347	+7.6
538.54	1.3275E+6	4.4675	0.0357	+1.2
538.71	1.3280E+6	4.4590	0.0339	+5.3
538.89	1.3285E+6	4.4604	0.0361	+8.6
539.07	1.3290E+6	4.4604	0.0343	+1.7
539.25	1.3295E+6	4.4576	0.0339	+6.7
539.42	1.3300E+6	4.4647	0.0351	+2.9
539.60	1.3305E+6	4.4548	0.0339	+10.3
539.80	1.3310E+6	4.4689	Inf	-362.9
539.99	1.3315E+6	4.4590	0.0331	+4.5
540.18	1.3320E+6	4.4647	Inf	-358.8
540.33	1.3325E+6	4.4604	Inf	-354.5
540.48	1.3330E+6	4.4604	0.0365	+3.4
540.67	1.3335E+6	4.4604	0.0341	-351.6
540.85	1.3340E+6	4.4590	Inf	+364.6
541.02	1.3345E+6	4.4491	Inf	+348.5
541.22	1.3350E+6	4.4647	Inf	+365.8
541.40	1.3355E+6	4.4661	0.0347	-4.1
541.58	1.3360E+6	4.4562	0.0357	+0.2
541.75	1.3365E+6	4.4647	0.0351	+7.4
541.91	1.3370E+6	4.4633	Inf	+361.9
542.08	1.3375E+6	4.4590	0.0335	+4.3
542.28	1.3380E+6	4.4590	Inf	+363.1
542.45	1.3385E+6	4.4661	Inf	+358.8
542.61	1.3390E+6	4.4618	0.0352	+3.1
542.79	1.3395E+6	4.4604	Inf	-14.9
542.96	1.3400E+6	4.4548	Inf	+362.4
543.13	1.3405E+6	4.4633	Inf	+367.5
543.33	1.3410E+6	4.4576	Inf	+354.0
543.49	1.3415E+6	4.4633	0.0333	+7.2
543.66	1.3420E+6	4.4717	Inf	+363.1
543.83	1.3425E+6	4.4604	0.0347	+7.5
543.99	1.3430E+6	4.4647	0.0359	+1.5
544.16	1.3435E+6	4.4576	Inf	+0.5
544.34	1.3440E+6	4.4647	0.0345	+0.5
544.52	1.3445E+6	4.4604	0.0335	+9.7
544.69	1.3450E+6	4.4647	Inf	-351.3
544.86	1.3455E+6	4.4675	Inf	+369.0
545.02	1.3460E+6	4.4562	Inf	-3.9
545.17	1.3465E+6	4.4590	0.0357	+5.3
545.37	1.3470E+6	4.4534	0.0327	-5.3
545.57	1.3475E+6	4.4717	Inf	-12.9
545.76	1.3480E+6	4.4576	Inf	+357.1
545.92	1.3485E+6	4.4618	Inf	+353.4
546.09	1.3490E+6	4.4519	Inf	+357.8
546.27	1.3495E+6	4.4689	Inf	+358.1
546.47	1.3500E+6	4.4618	0.0357	+6.1
546.65	1.3505E+6	4.4604	0.0346	+10.5
546.84	1.3510E+6	4.4562	0.0356	+6.3
547.02	1.3515E+6	4.4505	Inf	+1.0
547.18	1.3520E+6	4.4590	0.0346	-0.2
547.38	1.3525E+6	4.4576	Inf	+347.6
547.57	1.3530E+6	4.4647	0.0359	+0.2
547.74	1.3535E+6	4.4675	0.0356	+2.2
547.90	1.3540E+6	4.4633	Inf	+Inf
548.07	1.3545E+6	4.4604	0.0352	-2.7
548.23	1.3550E+6	4.4548	Inf	+366.6
548.40	1.3555E+6	4.4703	0.0351	-3.7
548.60	1.3560E+6	4.4604	0.0346	+4.4
548.78	1.3565E+6	4.4618	Inf	+345.8
548.95	1.3570E+6	4.4562	Inf	+Inf
549.12	1.3575E+6	4.4562	0.0344	-7.3
549.28	1.3580E+6	4.4633	0.0353	+6.4
549.45	1.3585E+6	4.4576	Inf	-4.4
549.61	1.3590E+6	4.4562	Inf	-357.8
549.78	1.3595E+6	4.4590	Inf	+4.4
549.95	1.3600E+6	4.4633	Inf	+2.0
550.10	1.3605E+6	4.4491	0.0331	-2.2
550.30	1.3610E+6	4.4647	0.0355	+0.7
550.48	1.3615E+6	4.4562	0.0353	+2.0
550.65	1.3620E+6	4.4618	0.0342	+4.7
550.85	1.3625E+6	4.4534	Inf	+5.7
551.03	1.3630E+6	4.4675	Inf	-349.2
551.21	1.3635E+6	4.4548	0.0360	-3.4
551.41	1.3640E+6	4.4548	0.0361	+2.9
551.58	1.3645E+6	4.4604	0.0357	-1.7
551.76	1.3650E+6	4.4576	Inf	-355.1
551.94	1.3655E+6	4.4576	0.0344	-353.8
552.13	1.3660E+6	4.4576	0.0340	+2.0
552.29	1.3665E+6	4.4548	0.0350	+6.6
552.49	1.3670E+6	4.4576	0.0343	+11.6
552.69	1.3675E+6	4.4562	Inf	+370.3
552.86	1.3680E+6	4.4534	0.0343	+10.6
553.06	1.3685E+6	4.4590	0.0343	+7.4
553.24	1.3690E+6	4.4604	Inf	+0.0
553.41	1.3695E+6	4.4633	0.0364	-1.0
553.59	1.3700E+6	4.4548	0.0318	-1.0
553.79	1.3705E+6	4.4590	0.0357	+3.7
553.99	1.3710E+6	4.4548	0.0339	-0.2
554.21	1.3715E+6	4.4576	0.0350	-357.0
554.40	1.3720E+6	4.4562	Inf	+7.4
554.57	1.3725E+6	4.4590	0.0354	+14.6
554.74	1.3730E+6	4.4576	0.0353	+3.2
554.90	1.3735E+6	4.4576	0.0349	+0.7
555.07	1.3740E+6	4.4463	0.0341	+6.7
555.27	1.3745E+6	4.4647	Inf	+357.3
555.47	1.3750E+6	4.4647	Inf	-350.1
555.63	1.3755E+6	4.4562	Inf	-364.0
555.80	1.3760E+6	4.4477	Inf	+Inf
555.97	1.3765E+6	4.4633	0.0349	+7.4
556.17	1.3770E+6	4.4590	0.0334	+6.2
556.35	1.3775E+6	4.4562	0.0353	+5.7
556.53	1.3780E+6	4.4618	0.0341	-2.5
556.72	1.3785E+6	4.4548	Inf	+7.4
556.90	1.3790E+6	4.4618	0.0348	+0.5
557.10	1.3795E+6	4.4590	Inf	+351.6
557.26	1.3800E+6	4.4534	0.0350	+5.7
557.43	1.3805E+6	4.4548	Inf	+348.8
557.61	1.3810E+6	4.4633	0.0346	+0.7
557.81	1.3815E+6	4.4534	Inf	-352.8
558.00	1.3820E+6	4.4576	Inf	+5.7
558.18	1.3825E+6	4.4505	Inf	-349.1
558.36	1.3830E+6	4.4505	0.0352	-5.2
558.54	1.3835E+6	4.4576	Inf	+351.8
558.73	1.3840E+6	4.4519	0.0359	+4.7
558.93	1.3845E+6	4.4618	0.0341	+7.2
559.13	1.3850E+6	4.4604	Inf	+3.2
559.29	1.3855E+6	4.4534	0.0352	-361.2
559.49	1.3860E+6	4.4505	0.0333	+1.0
559.68	1.3865E+6	4.4604	0.0342	+1.7
559.84	1.3870E+6	4.4519	Inf	-360.0
560.04	1.3875E+6	4.4534	Inf	+365.0
560.21	1.3880E+6	4.4590	0.0345	+0.5
560.37	1.3885E+6	4.4519	Inf	-364.7
560.56	1.3890E+6	4.4534	Inf	+354.8
560.71	1.3895E+6	4.4548	Inf	+6.8
560.87	1.3900E+6	4.4576	Inf	-355.2
561.07	1.3905E+6	4.4562	Inf	-7.5
561.24	1.3910E+6	4.4576	Inf	-4.8
561.40	1.3915E+6	4.4420	Inf	-13.8
561.57	1.3920E+6	4.4576	Inf	+365.8
561.75	1.3925E+6	4.4420	Inf	+Inf
561.94	1.3930E+6	4.4590	0.0352	-1.5
562.14	1.3935E+6	4.4519	Inf	+374.1
562.34	1.3940E+6	4.4548	0.0347	+6.8
562.50	1.3945E+6	4.4647	Inf	+352.5
562.69	1.3950E+6	4.4534	0.0326	+6.3
562.89	1.3955E+6	4.4562	0.0346	+5.3
563.09	1.3960E+6	4.4633	Inf	-3.3
563.25	1.3965E+6	4.4505	Inf	+351.2
563.45	1.3970E+6	4.4534	Inf	+2.8
563.62	1.3975E+6	4.4519	Inf	+359.2
563.77	1.3980E+6	4.4548	Inf	+356.7
563.93	1.3985E+6	4.4519	Inf	+356.5
564.10	1.3990E+6	4.4505	0.0354	-365.6
564.28	1.3995E+6	4.4534	Inf	+4.3
564.45	1.4000E+6	4.4477	0.0354	-1.8
564.62	1.4005E+6	4.4576	0.0347	-1.8
564.78	1.4010E+6	4.4505	0.0343	+0.3
564.98	1.4015E+6	4.4505	Inf	+Inf
565.15	1.4020E+6	4.4562	Inf	+341.8
565.33	1.4025E+6	4.4491	0.0340	+352.9
565.50	1.4030E+6	4.4519	Inf	+368.6
565.66	1.4035E+6	4.4576	Inf	+Inf
565.83	1.4040E+6	4.4463	0.0332	-3.3
566.03	1.4045E+6	4.4534	0.0338	-1.5
566.21	1.4050E+6	4.4576	0.0361	+13.2
566.41	1.4055E+6	4.4491	Inf	-4.0
566.59	1.4060E+6	4.4576	Inf	-3.0
566.78	1.4065E+6	4.4378	0.0354	+7.1
566.98	1.4070E+6	4.4505	Inf	+354.2
567.14	1.4075E+6	4.4590	Inf	-355.4
567.31	1.4080E+6	4.4463	0.0351	-358.2
567.48	1.4085E+6	4.4491	0.0330	-3.8
567.66	1.4090E+6	4.4477	0.0337	+5.3
567.84	1.4095E+6	4.4491	0.0343	+0.8
567.99	1.4100E+6	4.4463	Inf	+358.0
568.16	1.4105E+6	4.4505	0.0347	+2.8
568.32	1.4110E+6	4.4519	Inf	+372.4
568.49	1.4115E+6	4.4534	Inf	+351.6
568.66	1.4120E+6	4.4519	0.0346	+2.0
568.82	1.4125E+6	4.4505	0.0341	-356.7
568.99	1.4130E+6	4.4491	Inf	-355.7
569.17	1.4135E+6	4.4505	0.0344	+357.7
569.34	1.4140E+6	4.4449	0.0330	-4.6
569.52	1.4145E+6	4.4477	Inf	+348.3
569.69	1.4150E+6	4.4576	0.0350	-2.8
569.87	1.4155E+6	4.4449	0.0358	+1.3
570.04	1.4160E+6	4.4548	Inf	+361.8
570.19	1.4165E+6	4.4562	Inf	+358.5
570.38	1.4170E+6	4.4392	Inf	+353.9
570.55	1.4175E+6	4.4491	Inf	+355.2
570.72	1.4180E+6	4.4505	0.0343	+1.8
570.90	1.4185E+6	4.4519	Inf	+Inf
571.07	1.4190E+6	4.4590	0.0337	+4.9
571.24	1.4195E+6	4.4505	Inf	+Inf
571.42	1.4200E+6	4.4463	Inf	-3.6
571.60	1.4205E+6	4.4519	Inf	-362.6
571.77	1.4210E+6	4.4548	0.0359	+2.6
571.95	1.4215E+6	4.4491	Inf	+Inf
572.12	1.4220E+6	4.4449	0.0343	+6.4
572.30	1.4225E+6	4.4534	0.0350	+5.6
572.48	1.4230E+6	4.4519	0.0326	+5.9
572.68	1.4235E+6	4.4477	0.0319	-0.3
572.85	1.4240E+6	4.4477	0.0328	+4.6
573.01	1.4245E+6	4.4534	0.0341	+0.8
573.18	1.4250E+6	4.4534	0.0344	-3.8
573.35	1.4255E+6	4.4463	Inf	+364.4
573.51	1.4260E+6	4.4505	Inf	-7.0
573.68	1.4265E+6	4.4505	0.0338	+0.0
573.85	1.4270E+6	4.4534	Inf	+369.0
574.01	1.4275E+6	4.4449	Inf	-357.7
574.18	1.4280E+6	4.4477	Inf	-21.3
574.35	1.4285E+6	4.4406	Inf	+355.1
574.51	1.4290E+6	4.4435	0.0338	-4.9
574.68	1.4295E+6	4.4534	0.0341	+5.7
574.84	1.4300E+6	4.4519	Inf	+348.9
575.03	1.4305E+6	4.4477	Inf	+367.2
575.17	1.4310E+6	4.4477	Inf	-11.3
575.33	1.4315E+6	4.4505	0.0340	+4.4
575.48	1.4320E+6	4.4491	Inf	+Inf
575.64	1.4325E+6	4.4463	0.0343	-1.8
575.79	1.4330E+6	4.4449	Inf	-3.1
575.94	1.4335E+6	4.4463	Inf	-360.5
576.11	1.4340E+6	4.4505	Inf	+9.3
576.27	1.4345E+6	4.4505	Inf	+363.3
576.42	1.4350E+6	4.4519	Inf	+3.1
576.59	1.4355E+6	4.4519	0.0352	-4.9
576.77	1.4360E+6	4.4406	Inf	+Inf
576.94	1.4365E+6	4.4435	0.0342	+2.3
577.11	1.4370E+6	4.4378	0.0335	+4.2
577.27	1.4375E+6	4.4477	0.0327	-5.7
577.44	1.4380E+6	4.4435	0.0325	-6.7
577.60	1.4385E+6	4.4364	Inf	-1.8
577.75	1.4390E+6	4.4519	0.0327	+1.0
577.92	1.4395E+6	4.4463	0.0340	+10.1
578.10	1.4400E+6	4.4477	0.0344	-356.4
578.27	1.4405E+6	4.4435	Inf	+Inf
578.45	1.4410E+6	4.4449	Inf	+Inf
578.62	1.4415E+6	4.4435	0.0325	+0.8
578.80	1.4420E+6	4.4463	0.0344	-6.2
578.97	1.4425E+6	4.4505	Inf	+354.6
579.13	1.4430E+6	4.4420	0.0344	-1.3
579.30	1.4435E+6	4.4505	0.0341	-3.1
579.45	1.4440E+6	4.4491	0.0349	+2.1
579.63	1.4445E+6	4.4406	Inf	+362.3
579.80	1.4450E+6	4.4435	Inf	-362.9
579.97	1.4455E+6	4.4435	Inf	+368.3
580.12	1.4460E+6	4.4477	0.0340	-2.9
580.28	1.4465E+6	4.4435	Inf	+7.0
580.45	1.4470E+6	4.4406	Inf	+357.4
580.60	1.4475E+6	4.4378	Inf	+350.4
580.78	1.4480E+6	4.4406	0.0336	-1.6
580.95	1.4485E+6	4.4477	Inf	-352.2
581.11	1.4490E+6	4.4420	Inf	-8.9
581.26	1.4495E+6	4.4491	0.0336	-2.1
581.41	1.4500E+6	4.4449	0.0347	-6.0
581.60	1.4505E+6	4.4477	Inf	+353.7
581.76	1.4510E+6	4.4491	0.0354	-2.1
581.95	1.4515E+6	4.4477	0.0336	+5.8
582.13	1.4520E+6	4.4477	0.0338	-3.9
582.28	1.4525E+6	4.4477	0.0348	-1.6
582.46	1.4530E+6	4.4463	Inf	+Inf
582.63	1.4535E+6	4.4449	0.0344	-2.4
582.81	1.4540E+6	4.4420	Inf	+Inf
582.98	1.4545E+6	4.4392	Inf	+355.0
583.16	1.4550E+6	4.4350	0.0344	+2.4
583.33	1.4555E+6	4.4449	0.0325	+1.0
583.51	1.4560E+6	4.4449	Inf	-354.5
583.67	1.4565E+6	4.4463	Inf	-358.9
583.84	1.4570E+6	4.4449	Inf	-12.3
584.01	1.4575E+6	4.4449	0.0334	-2.6
584.19	1.4580E+6	4.4519	Inf	+355.5
584.36	1.4585E+6	4.4378	0.0349	+0.0
584.52	1.4590E+6	4.4307	Inf	-3.2
584.69	1.4595E+6	4.4392	Inf	+360.0
584.86	1.4600E+6	4.4519	Inf	+348.9
585.02	1.4605E+6	4.4307	Inf	+346.9
585.19	1.4610E+6	4.4420	0.0351	+2.6
585.36	1.4615E+6	4.4449	0.0319	-6.8
585.54	1.4620E+6	4.4364	0.0320	+3.7
585.70	1.4625E+6	4.4435	Inf	-365.0
585.87	1.4630E+6	4.4463	0.0343	+1.3
586.05	1.4635E+6	4.4435	Inf	+366.3
586.22	1.4640E+6	4.4378	Inf	-9.2
586.38	1.4645E+6	4.4406	0.0325	+3.7
586.57	1.4650E+6	4.4420	0.0329	-1.1
586.75	1.4655E+6	4.4491	Inf	+348.1
586.92	1.4660E+6	4.4307	0.0349	+3.2
587.10	1.4665E+6	4.4392	0.0347	+1.3
587.27	1.4670E+6	4.4364	Inf	+344.2
587.43	1.4675E+6	4.4378	0.0342	-6.1
587.62	1.4680E+6	4.4463	Inf	-25.9
587.78	1.4685E+6	4.4420	Inf	+7.4
587.97	1.4690E+6	4.4336	0.0352	+8.5
588.15	1.4695E+6	4.4336	0.0342	+3.4
588.33	1.4700E+6	4.4392	Inf	+2.6
588.50	1.4705E+6	4.4378	Inf	+Inf
588.66	1.4710E+6	4.4392	Inf	-353.4
588.83	1.4715E+6	4.4392	Inf	-360.0
589.00	1.4720E+6	4.4420	0.0337	-2.4
589.18	1.4725E+6	4.4378	0.0340	+5.8
589.35	1.4730E+6	4.4392	0.0347	+1.1
589.53	1.4735E+6	4.4364	Inf	-4.8
589.70	1.4740E+6	4.4321	0.0339	+4.0
589.86	1.4745E+6	4.4420	0.0341	+4.3
590.03	1.4750E+6	4.4491	0.0351	+2.7
590.19	1.4755E+6	4.4364	Inf	+355.5
590.36	1.4760E+6	4.4336	Inf	+353.1
590.54	1.4765E+6	4.4378	Inf	-357.1
590.71	1.4770E+6	4.4449	0.0339	+8.8
590.88	1.4775E+6	4.4378	Inf	-2.4
591.04	1.4780E+6	4.4378	Inf	-12.8
591.21	1.4785E+6	4.4336	Inf	-360.3
591.37	1.4790E+6	4.4420	Inf	+366.1
591.54	1.4795E+6	4.4378	0.0341	+5.3
591.71	1.4800E+6	4.4378	0.0332	+5.9
591.87	1.4805E+6	4.4449	0.0341	-1.9
592.06	1.4810E+6	4.4420	0.0351	-0.3
592.24	1.4815E+6	4.4420	0.0326	+0.5
592.42	1.4820E+6	4.4364	0.0331	+1.6
592.59	1.4825E+6	4.4378	Inf	+2.9
592.75	1.4830E+6	4.4350	0.0346	-2.4
592.96	1.4835E+6	4.4406	Inf	+Inf
593.12	1.4840E+6	4.4364	0.0347	+2.4
593.30	1.4845E+6	4.4477	Inf	+349.8
593.47	1.4850E+6	4.4321	0.0348	+7.8
593.62	1.4855E+6	4.4378	0.0335	-4.3
593.80	1.4860E+6	4.4307	0.0338	-356.3
593.97	1.4865E+6	4.4350	0.0336	+2.9
594.13	1.4870E+6	4.4350	Inf	-357.9
594.30	1.4875E+6	4.4251	0.0336	-0.5
594.49	1.4880E+6	4.4378	0.0348	-3.2
594.68	1.4885E+6	4.4435	Inf	-6.4
594.85	1.4890E+6	4.4350	Inf	+354.9
595.00	1.4895E+6	4.4321	0.0336	-9.3
595.18	1.4900E+6	4.4321	Inf	+347.4
595.35	1.4905E+6	4.4364	Inf	+Inf
595.53	1.4910E+6	4.4420	Inf	-365.1
595.70	1.4915E+6	4.4307	Inf	-361.3
595.87	1.4920E+6	4.4449	0.0339	+4.0
596.03	1.4925E+6	4.4350	0.0319	+1.1
596.21	1.4930E+6	4.4336	Inf	+339.3
596.36	1.4935E+6	4.4420	0.0333	-352.5
596.53	1.4940E+6	4.4293	0.0329	+3.2
596.71	1.4945E+6	4.4350	Inf	+367.2
596.88	1.4950E+6	4.4293	Inf	-8.1
597.04	1.4955E+6	4.4265	Inf	-365.9
597.21	1.4960E+6	4.4420	0.0342	-1.3
597.41	1.4965E+6	4.4435	0.0345	-3.5
