#date: 15.10.2020	time: 13:46:04
#t (s)	f (Hz)	A1 (V)	A2 (V)	phase (deg)
17.28	1.0000E+1	1.5249	0.0006	+134.4
17.55	5.1000E+2	2.3699	Inf	+Inf
17.83	1.0100E+3	2.3702	Inf	+Inf
18.03	1.5100E+3	2.3852	Inf	+Inf
18.34	2.0100E+3	2.4029	0.0945	+116.9
18.56	2.5100E+3	2.4289	0.1159	+123.2
18.79	3.0100E+3	2.4590	0.1352	+124.3
19.01	3.5100E+3	2.4931	0.1547	+130.3
19.26	4.0100E+3	2.5278	0.1717	+135.6
19.47	4.5100E+3	2.5640	0.1876	+137.3
19.71	5.0100E+3	2.6016	0.2028	+142.4
19.94	5.5100E+3	2.6395	0.2151	+149.8
20.17	6.0100E+3	2.6771	0.2272	+149.0
20.39	6.5100E+3	2.7159	0.2372	+154.4
20.62	7.0100E+3	2.7593	0.2473	+157.4
20.84	7.5100E+3	2.8023	0.2570	+161.0
21.05	8.0100E+3	2.8453	0.2661	+163.4
21.27	8.5100E+3	2.8884	0.2731	+166.1
21.50	9.0100E+3	2.9305	0.2783	+169.7
21.72	9.5100E+3	2.9700	0.2840	+170.2
21.93	1.0010E+4	3.0069	0.2899	+174.2
22.15	1.0510E+4	3.0452	0.2942	+175.8
22.37	1.1010E+4	3.0753	0.2982	+176.5
22.58	1.1510E+4	3.1075	0.3020	+178.7
22.80	1.2010E+4	3.1384	0.3048	+180.8
23.03	1.2510E+4	3.1715	0.3074	-174.3
23.27	1.3010E+4	3.2043	0.3093	-173.7
23.46	1.3510E+4	3.2391	0.3118	-171.3
23.70	1.4010E+4	3.2685	0.3128	-169.1
23.91	1.4510E+4	3.3005	0.3140	-168.7
24.13	1.5010E+4	3.3286	0.3148	-169.2
24.33	1.5510E+4	3.3569	0.3156	-167.3
24.56	1.6010E+4	3.3859	0.3153	-164.1
24.78	1.6510E+4	3.4114	0.3167	-163.2
25.01	1.7010E+4	3.4375	0.3153	-163.0
25.25	1.7510E+4	3.4606	0.3155	-161.9
25.46	1.8010E+4	3.4783	0.3146	-156.1
25.68	1.8510E+4	3.4935	0.3129	-158.8
25.88	1.9010E+4	3.5122	0.3125	-160.2
26.08	1.9510E+4	3.5398	0.3120	-154.4
26.28	2.0010E+4	3.5642	0.3106	-154.7
26.48	2.0510E+4	3.5883	0.3104	-154.7
26.68	2.1010E+4	3.6108	0.3089	-151.9
26.91	2.1510E+4	3.6347	0.3085	-152.1
27.12	2.2010E+4	3.6540	0.3077	-152.7
27.31	2.2510E+4	3.6740	0.3055	-150.7
27.52	2.3010E+4	3.6938	0.3046	-147.7
27.72	2.3510E+4	3.7103	0.3027	-150.2
27.94	2.4010E+4	3.7283	0.3013	-147.4
28.15	2.4510E+4	3.7454	0.3002	-147.5
28.35	2.5010E+4	3.7617	0.2976	-143.1
28.57	2.5510E+4	3.7782	0.2965	-142.1
28.79	2.6010E+4	3.7925	0.2947	-145.1
28.98	2.6510E+4	3.8095	0.2928	-143.7
29.20	2.7010E+4	3.8218	0.2916	-140.6
29.40	2.7510E+4	3.8383	0.2896	-140.2
29.62	2.8010E+4	3.8568	0.2873	-141.6
29.80	2.8510E+4	3.8683	0.2860	-139.8
30.03	2.9010E+4	3.8827	0.2839	-140.0
30.23	2.9510E+4	3.8963	0.2823	-139.6
30.45	3.0010E+4	3.9107	0.2807	-139.2
30.65	3.0510E+4	3.9247	0.2775	-137.1
30.88	3.1010E+4	3.9345	0.2762	-139.4
31.08	3.1510E+4	3.9465	0.2752	-136.5
31.30	3.2010E+4	3.9615	0.2720	-136.2
31.50	3.2510E+4	3.9720	0.2709	-134.2
31.68	3.3010E+4	3.9834	0.2695	-134.7
31.91	3.3510E+4	3.9988	0.2672	-137.8
32.13	3.4010E+4	4.0086	0.2661	-134.1
32.36	3.4510E+4	4.0223	0.2642	-131.4
32.56	3.5010E+4	4.0297	0.2626	-132.8
32.76	3.5510E+4	4.0410	0.2613	-133.1
32.99	3.6010E+4	4.0544	0.2589	-130.3
33.21	3.6510E+4	4.0635	0.2565	-131.6
33.44	3.7010E+4	4.0711	0.2546	-130.5
33.66	3.7510E+4	4.0813	0.2531	-129.6
33.86	3.8010E+4	4.0899	0.2509	-130.6
34.09	3.8510E+4	4.0978	0.2488	-128.0
34.31	3.9010E+4	4.1062	0.2468	-128.8
34.52	3.9510E+4	4.1168	0.2446	-135.7
34.76	4.0010E+4	4.1240	0.2431	-130.6
34.97	4.0510E+4	4.1342	0.2412	-127.8
35.17	4.1010E+4	4.1445	0.2395	-125.8
35.41	4.1510E+4	4.1504	0.2366	-127.8
35.62	4.2010E+4	4.1562	0.2348	-129.7
35.82	4.2510E+4	4.1657	0.2333	-130.1
36.02	4.3010E+4	4.1687	0.2319	-125.2
36.24	4.3510E+4	4.1791	0.2303	-128.1
36.45	4.4010E+4	4.1824	0.2287	-122.1
36.65	4.4510E+4	4.1875	0.2269	-128.2
36.85	4.5010E+4	4.1957	0.2259	-128.4
37.04	4.5510E+4	4.2012	0.2235	-117.6
37.27	4.6010E+4	4.2100	0.2221	-125.8
37.48	4.6510E+4	4.2146	0.2207	-126.1
37.70	4.7010E+4	4.2211	0.2197	-123.1
37.92	4.7510E+4	4.2260	0.2183	-123.2
38.13	4.8010E+4	4.2337	0.2166	-129.7
38.37	4.8510E+4	4.2347	0.2159	-122.8
38.55	4.9010E+4	4.2373	0.2145	-122.7
38.77	4.9510E+4	4.2476	0.2130	-118.6
38.97	5.0010E+4	4.2508	0.2109	-121.5
39.16	5.0510E+4	4.2549	0.2103	-120.0
39.35	5.1010E+4	4.2586	0.2077	-121.0
39.58	5.1510E+4	4.2640	0.2072	-120.0
39.76	5.2010E+4	4.2694	0.2062	-125.4
39.96	5.2510E+4	4.2718	0.2049	-118.4
40.16	5.3010E+4	4.2755	0.2036	-119.6
40.38	5.3510E+4	4.2767	0.2024	-119.2
40.59	5.4010E+4	4.2852	0.2014	-120.1
40.81	5.4510E+4	4.2887	0.1996	-118.0
41.01	5.5010E+4	4.2944	0.1978	-122.2
41.21	5.5510E+4	4.2955	0.1969	-120.4
41.43	5.6010E+4	4.3018	0.1958	-117.5
41.63	5.6510E+4	4.3012	0.1943	-119.1
41.84	5.7010E+4	4.3050	0.1937	-119.9
42.04	5.7510E+4	4.3100	0.1915	-119.0
42.24	5.8010E+4	4.3111	0.1907	-115.8
42.42	5.8510E+4	4.3162	0.1899	-118.3
42.64	5.9010E+4	4.3162	0.1886	-116.4
42.86	5.9510E+4	4.3234	0.1883	-115.4
43.04	6.0010E+4	4.3221	0.1866	-118.2
43.24	6.0510E+4	4.3285	0.1856	-120.0
43.46	6.1010E+4	4.3315	0.1849	-118.6
43.64	6.1510E+4	4.3356	0.1829	-118.7
43.85	6.2010E+4	4.3356	0.1826	-116.2
44.04	6.2510E+4	4.3385	0.1823	-116.0
44.22	6.3010E+4	4.3414	0.1808	-118.2
44.44	6.3510E+4	4.3479	0.1792	-117.0
44.66	6.4010E+4	4.3438	0.1779	-115.3
44.85	6.4510E+4	4.3501	0.1772	-117.4
45.05	6.5010E+4	4.3532	0.1755	-112.9
45.27	6.5510E+4	4.3534	0.1746	-116.4
45.47	6.6010E+4	4.3602	0.1732	-114.2
45.67	6.6510E+4	4.3604	0.1722	-115.5
45.85	6.7010E+4	4.3596	0.1715	-114.1
46.05	6.7510E+4	4.3631	0.1698	-113.0
46.27	6.8010E+4	4.3670	0.1687	-112.2
46.47	6.8510E+4	4.3672	0.1685	-110.6
46.65	6.9010E+4	4.3725	0.1667	-113.3
46.86	6.9510E+4	4.3703	0.1664	-114.2
47.05	7.0010E+4	4.3727	0.1648	-113.1
47.25	7.0510E+4	4.3757	0.1641	-113.0
47.46	7.1010E+4	4.3742	0.1641	-117.6
47.65	7.1510E+4	4.3817	0.1631	-115.9
47.85	7.2010E+4	4.3767	0.1614	-108.5
48.06	7.2510E+4	4.3831	0.1612	-102.2
48.24	7.3010E+4	4.3838	0.1596	-109.0
48.45	7.3510E+4	4.3856	0.1586	-107.7
48.66	7.4010E+4	4.3948	0.1587	-112.3
48.84	7.4510E+4	4.3914	0.1582	-116.0
49.03	7.5010E+4	4.3952	0.1567	-115.0
49.23	7.5510E+4	4.3985	0.1566	-114.8
49.43	7.6010E+4	4.3930	0.1554	-112.8
49.66	7.6510E+4	4.3983	0.1556	-113.0
49.87	7.7010E+4	4.3985	0.1541	-109.4
50.08	7.7510E+4	4.3992	0.1528	-110.7
50.27	7.8010E+4	4.4060	0.1524	-116.1
50.46	7.8510E+4	4.4017	0.1525	-112.3
50.64	7.9010E+4	4.4063	0.1505	-111.1
50.84	7.9510E+4	4.4060	0.1499	-111.9
51.02	8.0010E+4	4.4053	0.1494	-110.8
51.20	8.0510E+4	4.4074	0.1485	-112.4
51.41	8.1010E+4	4.4092	0.1473	-112.1
51.60	8.1510E+4	4.4087	0.1476	-110.6
51.79	8.2010E+4	4.4106	0.1461	-108.9
52.00	8.2510E+4	4.4136	0.1465	-111.8
52.20	8.3010E+4	4.4150	0.1461	-111.9
52.40	8.3510E+4	4.4191	0.1458	-103.4
52.59	8.4010E+4	4.4159	0.1443	-109.5
52.79	8.4510E+4	4.4225	0.1429	-109.8
52.99	8.5010E+4	4.4213	0.1430	-111.6
53.17	8.5510E+4	4.4239	0.1434	-112.6
53.35	8.6010E+4	4.4245	0.1411	-108.7
53.55	8.6510E+4	4.4238	0.1413	-111.5
53.73	8.7010E+4	4.4269	0.1404	-113.3
53.97	8.7510E+4	4.4258	0.1400	-111.7
54.17	8.8010E+4	4.4303	0.1398	-104.0
54.37	8.8510E+4	4.4271	0.1381	-108.4
54.56	8.9010E+4	4.4303	0.1381	-114.7
54.75	8.9510E+4	4.4297	0.1370	-108.8
54.96	9.0010E+4	4.4367	0.1372	-111.8
55.15	9.0510E+4	4.4323	0.1357	-109.9
55.35	9.1010E+4	4.4329	0.1357	-110.9
55.53	9.1510E+4	4.4405	0.1345	-108.3
55.75	9.2010E+4	4.4388	0.1344	-104.6
55.93	9.2510E+4	4.4370	0.1337	-110.6
56.11	9.3010E+4	4.4395	0.1343	-103.5
56.30	9.3510E+4	4.4419	0.1323	-108.2
56.49	9.4010E+4	4.4408	0.1325	-112.8
56.68	9.4510E+4	4.4420	0.1313	-108.0
56.88	9.5010E+4	4.4444	0.1306	-112.1
57.08	9.5510E+4	4.4442	0.1304	-111.1
57.26	9.6010E+4	4.4477	0.1303	-104.4
57.44	9.6510E+4	4.4430	0.1292	-111.3
57.64	9.7010E+4	4.4456	0.1280	-110.1
57.83	9.7510E+4	4.4477	0.1277	-109.0
58.02	9.8010E+4	4.4481	0.1287	-106.7
58.22	9.8510E+4	4.4505	0.1267	-105.8
58.44	9.9010E+4	4.4505	0.1268	-107.1
58.62	9.9510E+4	4.4504	0.1262	-106.7
58.82	1.0001E+5	4.4529	0.1259	-103.5
59.01	1.0051E+5	4.4522	0.1257	-111.5
59.19	1.0101E+5	4.4535	0.1249	-107.0
59.41	1.0151E+5	4.4573	0.1247	-103.3
59.60	1.0201E+5	4.4532	0.1248	-108.1
59.80	1.0251E+5	4.4543	0.1231	-109.8
60.00	1.0301E+5	4.4609	0.1225	-106.1
60.22	1.0351E+5	4.4515	0.1222	-108.0
60.44	1.0401E+5	4.4610	0.1218	-104.8
60.64	1.0451E+5	4.4584	0.1208	-107.4
60.84	1.0501E+5	4.4600	0.1213	-107.6
61.03	1.0551E+5	4.4604	0.1207	-113.1
61.23	1.0601E+5	4.4597	0.1214	-111.8
61.43	1.0651E+5	4.4583	0.1194	-105.4
61.63	1.0701E+5	4.4633	0.1185	-108.7
61.82	1.0751E+5	4.4607	0.1186	-104.7
62.00	1.0801E+5	4.4626	0.1181	-108.4
62.18	1.0851E+5	4.4626	0.1174	-106.3
62.40	1.0901E+5	4.4667	0.1174	-103.0
62.58	1.0951E+5	4.4635	0.1164	-104.2
62.80	1.1001E+5	4.4683	0.1165	-107.1
62.98	1.1051E+5	4.4683	0.1164	-107.0
63.16	1.1101E+5	4.4665	0.1163	-102.5
63.35	1.1151E+5	4.4712	0.1144	-105.3
63.56	1.1201E+5	4.4689	0.1145	-108.1
63.74	1.1251E+5	4.4693	0.1144	-102.8
63.93	1.1301E+5	4.4685	0.1140	-107.3
64.11	1.1351E+5	4.4703	0.1143	-102.8
64.30	1.1401E+5	4.4740	0.1133	-110.8
64.49	1.1451E+5	4.4699	0.1129	-108.0
64.68	1.1501E+5	4.4737	0.1127	-104.8
64.86	1.1551E+5	4.4780	0.1126	-108.8
65.03	1.1601E+5	4.4754	0.1119	-103.0
65.22	1.1651E+5	4.4766	0.1117	-104.1
65.41	1.1701E+5	4.4787	0.1116	-103.1
65.59	1.1751E+5	4.4781	0.1108	-101.0
65.79	1.1801E+5	4.4777	0.1104	-105.8
65.97	1.1851E+5	4.4771	0.1101	-102.2
66.16	1.1901E+5	4.4750	0.1102	-103.6
66.34	1.1951E+5	4.4787	0.1098	-105.1
66.52	1.2001E+5	4.4791	0.1098	-104.9
66.71	1.2051E+5	4.4811	0.1092	-109.2
66.91	1.2101E+5	4.4822	0.1089	-112.3
67.09	1.2151E+5	4.4835	0.1091	-104.2
67.29	1.2201E+5	4.4763	0.1091	-104.6
67.49	1.2251E+5	4.4794	0.1083	-101.5
67.67	1.2301E+5	4.4833	0.1075	-102.2
67.90	1.2351E+5	4.4782	0.1067	-105.5
68.14	1.2401E+5	4.4826	0.1067	-106.5
68.32	1.2451E+5	4.4857	0.1071	-104.7
68.55	1.2501E+5	4.4801	0.1059	-107.3
68.77	1.2551E+5	4.4884	0.1077	-95.1
68.98	1.2601E+5	4.4845	0.1056	-109.0
69.18	1.2651E+5	4.4836	0.1051	-104.9
69.40	1.2701E+5	4.4843	0.1047	-100.6
69.58	1.2751E+5	4.4825	0.1044	-104.7
69.78	1.2801E+5	4.4866	0.1046	-115.2
70.00	1.2851E+5	4.4898	0.1044	-105.6
70.18	1.2901E+5	4.4853	0.1040	-108.8
70.36	1.2951E+5	4.4879	0.1036	-103.1
70.56	1.3001E+5	4.4897	0.1036	-100.7
70.75	1.3051E+5	4.4908	0.1029	-111.2
70.93	1.3101E+5	4.4867	0.1042	-107.0
71.13	1.3151E+5	4.4886	0.1026	-101.1
71.33	1.3201E+5	4.4870	0.1019	-104.7
71.55	1.3251E+5	4.4904	0.1019	-103.0
71.73	1.3301E+5	4.4867	0.1015	-101.5
71.91	1.3351E+5	4.4901	0.1025	-96.9
72.11	1.3401E+5	4.4922	0.1011	-98.3
72.31	1.3451E+5	4.4869	0.1007	-106.2
72.49	1.3501E+5	4.4935	0.1018	-100.6
72.69	1.3551E+5	4.4908	0.1003	-108.7
72.89	1.3601E+5	4.4877	0.1006	-105.1
73.08	1.3651E+5	4.4921	0.0991	-107.2
73.28	1.3701E+5	4.4952	0.1000	-103.0
73.47	1.3751E+5	4.4913	0.0991	-102.7
73.67	1.3801E+5	4.4958	0.0997	-102.5
73.86	1.3851E+5	4.4917	0.0985	-101.4
74.04	1.3901E+5	4.4958	0.0987	-109.2
74.22	1.3951E+5	4.4954	0.0975	-101.7
74.42	1.4001E+5	4.4961	0.1002	-99.0
74.62	1.4051E+5	4.4958	0.0981	-102.8
74.82	1.4101E+5	4.4973	0.0974	-104.3
75.00	1.4151E+5	4.4948	0.0973	-108.2
75.19	1.4201E+5	4.4961	0.0970	-99.0
75.37	1.4251E+5	4.5010	0.0971	-102.0
75.56	1.4301E+5	4.4985	0.0972	-104.6
75.74	1.4351E+5	4.5038	0.0969	-103.4
75.92	1.4401E+5	4.5012	0.0967	-103.9
76.12	1.4451E+5	4.4986	0.0962	-98.6
76.30	1.4501E+5	4.5010	0.0959	-108.8
76.48	1.4551E+5	4.5007	0.0963	-97.4
76.67	1.4601E+5	4.5021	0.0953	-102.2
76.87	1.4651E+5	4.4976	0.0957	-104.4
77.07	1.4701E+5	4.5010	0.0950	-99.4
77.28	1.4751E+5	4.4983	0.0947	-103.1
77.47	1.4801E+5	4.5044	0.0951	-104.5
77.65	1.4851E+5	4.5023	0.0952	-101.5
77.83	1.4901E+5	4.5044	0.0944	-102.1
78.02	1.4951E+5	4.5019	0.0937	-105.4
78.22	1.5001E+5	4.5021	0.0946	-100.2
78.41	1.5051E+5	4.5019	0.0949	-96.7
78.60	1.5101E+5	4.5092	0.0940	-104.3
78.80	1.5151E+5	4.5070	0.0944	-104.2
79.00	1.5201E+5	4.5043	0.0937	-102.7
79.20	1.5251E+5	4.5085	0.0939	-101.3
79.38	1.5301E+5	4.5092	0.0936	-100.0
79.56	1.5351E+5	4.5089	0.0925	-102.9
79.76	1.5401E+5	4.5061	0.0921	-102.6
79.94	1.5451E+5	4.5095	0.0926	-107.9
80.13	1.5501E+5	4.5071	0.0933	-104.3
80.34	1.5551E+5	4.5047	0.0946	-104.3
80.54	1.5601E+5	4.5048	0.0929	-101.1
80.74	1.5651E+5	4.5084	0.0918	-102.0
80.94	1.5701E+5	4.5095	0.0923	-106.9
81.13	1.5751E+5	4.5075	0.0928	-98.9
81.33	1.5801E+5	4.5098	0.0918	-111.5
81.53	1.5851E+5	4.5113	0.0937	-92.9
81.72	1.5901E+5	4.5057	0.0972	-113.9
81.92	1.5951E+5	4.5142	0.0909	-96.9
82.14	1.6001E+5	4.5170	0.0898	-106.9
82.34	1.6051E+5	4.5113	0.0900	-101.1
82.57	1.6101E+5	4.5098	0.0904	-100.9
82.75	1.6151E+5	4.5163	0.0907	-98.6
82.95	1.6201E+5	4.5085	0.0906	-105.9
83.16	1.6251E+5	4.5129	0.0900	-105.9
83.37	1.6301E+5	4.5170	0.0898	-103.5
83.57	1.6351E+5	4.5099	0.0883	+271.5
83.79	1.6401E+5	4.5145	0.0913	-98.2
84.00	1.6451E+5	4.5128	0.0927	-116.3
84.20	1.6501E+5	4.5099	0.0903	-97.5
84.44	1.6551E+5	4.5113	0.0889	-107.6
84.64	1.6601E+5	4.5105	0.0886	-99.9
84.82	1.6651E+5	4.5211	0.0896	-102.2
85.02	1.6701E+5	4.5170	0.0878	+264.3
85.22	1.6751E+5	4.5099	0.0879	-109.9
85.43	1.6801E+5	4.5123	0.0877	-103.7
85.63	1.6851E+5	4.5198	0.0874	-103.3
85.81	1.6901E+5	4.5128	0.0878	-105.6
86.00	1.6951E+5	4.5156	0.0865	-103.6
86.21	1.7001E+5	4.5156	0.0873	-104.7
86.41	1.7051E+5	4.5170	0.0868	-106.2
86.61	1.7101E+5	4.5156	0.0867	-104.1
86.80	1.7151E+5	4.5156	0.0869	-102.7
86.98	1.7201E+5	4.5170	0.0863	-94.9
87.16	1.7251E+5	4.5156	0.0862	-101.5
87.34	1.7301E+5	4.5170	0.0860	-99.5
87.53	1.7351E+5	4.5198	0.0857	-106.0
87.71	1.7401E+5	4.5156	0.0859	-100.5
87.89	1.7451E+5	4.5198	0.0856	-109.1
88.08	1.7501E+5	4.5198	0.0859	-109.5
88.26	1.7551E+5	4.5170	0.0856	-101.1
88.44	1.7601E+5	4.5156	0.0857	-97.3
88.63	1.7651E+5	4.5212	0.0862	-102.6
88.81	1.7701E+5	4.5212	0.0851	-99.4
89.01	1.7751E+5	4.5212	0.0849	-98.6
89.19	1.7801E+5	4.5128	0.0863	+268.5
89.39	1.7851E+5	4.5198	0.0844	-106.4
89.59	1.7901E+5	4.5212	0.0850	-104.0
89.77	1.7951E+5	4.5212	0.0853	-101.6
89.96	1.8001E+5	4.5241	0.0856	-106.3
90.16	1.8051E+5	4.5198	0.0843	-95.1
90.36	1.8101E+5	4.5241	0.0853	+261.7
90.54	1.8151E+5	4.5227	0.0845	-104.2
90.72	1.8201E+5	4.5184	0.0839	-96.3
90.94	1.8251E+5	4.5198	0.0840	-101.4
91.12	1.8301E+5	4.5227	0.0838	-111.5
91.30	1.8351E+5	4.5198	0.0832	-100.5
91.49	1.8401E+5	4.5283	0.0837	-107.7
91.67	1.8451E+5	4.5212	0.0825	-101.7
91.87	1.8501E+5	4.5212	0.0835	-99.6
92.07	1.8551E+5	4.5241	0.0832	-101.2
92.27	1.8601E+5	4.5241	0.0828	-105.7
92.45	1.8651E+5	4.5269	0.0836	-100.4
92.64	1.8701E+5	4.5212	0.0841	-104.9
92.82	1.8751E+5	4.5255	0.0826	-108.9
93.02	1.8801E+5	4.5227	0.0823	-99.1
93.20	1.8851E+5	4.5212	0.0826	-96.5
93.38	1.8901E+5	4.5255	0.0816	-104.3
93.57	1.8951E+5	4.5212	0.0821	-108.0
93.75	1.9001E+5	4.5212	0.0828	-104.8
93.95	1.9051E+5	4.5255	0.0820	-107.1
94.15	1.9101E+5	4.5255	0.0828	-109.1
94.35	1.9151E+5	4.5255	0.0814	-96.9
94.55	1.9201E+5	4.5255	0.0821	-100.2
94.73	1.9251E+5	4.5241	0.0812	-101.8
94.93	1.9301E+5	4.5241	0.0821	-104.3
95.13	1.9351E+5	4.5227	0.0835	+253.8
95.33	1.9401E+5	4.5255	0.0819	-107.9
95.53	1.9451E+5	4.5241	0.0824	-112.8
95.71	1.9501E+5	4.5241	0.0810	-99.8
95.91	1.9551E+5	4.5283	0.0805	-99.4
96.09	1.9601E+5	4.5255	0.0802	-105.9
96.28	1.9651E+5	4.5255	0.0804	-100.2
96.46	1.9701E+5	4.5227	0.0816	-110.1
96.66	1.9751E+5	4.5269	0.0820	-97.7
96.84	1.9801E+5	4.5326	0.0811	-102.6
97.04	1.9851E+5	4.5255	0.0810	-108.9
97.22	1.9901E+5	4.5283	0.0818	-104.4
97.42	1.9951E+5	4.5255	0.0807	-89.0
97.62	2.0001E+5	4.5269	0.0812	-87.0
97.81	2.0051E+5	4.5297	0.0787	-99.3
98.01	2.0101E+5	4.5227	0.0817	-106.5
98.20	2.0151E+5	4.5212	0.0801	-103.8
98.41	2.0201E+5	4.5283	0.0798	-98.4
98.61	2.0251E+5	4.5283	0.0809	-107.9
98.80	2.0301E+5	4.5255	0.0793	-96.6
99.00	2.0351E+5	4.5311	0.0799	-100.3
99.19	2.0401E+5	4.5283	0.0794	-101.1
99.37	2.0451E+5	4.5297	0.0808	-102.1
99.57	2.0501E+5	4.5283	0.0799	-113.4
99.77	2.0551E+5	4.5283	0.0800	-110.3
99.97	2.0601E+5	4.5311	0.0802	-91.4
100.15	2.0651E+5	4.5255	0.0801	-97.4
100.33	2.0701E+5	4.5283	0.0798	-96.5
100.53	2.0751E+5	4.5255	0.0802	-104.2
100.73	2.0801E+5	4.5340	0.0799	-110.3
100.92	2.0851E+5	4.5326	0.0814	-112.1
101.12	2.0901E+5	4.5283	0.0794	-108.8
101.31	2.0951E+5	4.5269	0.0794	-100.7
101.50	2.1001E+5	4.5311	0.0815	-110.1
101.70	2.1051E+5	4.5297	0.0797	-88.3
101.90	2.1101E+5	4.5297	0.0793	-99.1
102.08	2.1151E+5	4.5311	0.0789	-101.7
102.27	2.1201E+5	4.5326	0.0793	-106.6
102.45	2.1251E+5	4.5311	0.0793	-99.2
102.63	2.1301E+5	4.5326	0.0798	-103.6
102.81	2.1351E+5	4.5326	0.0814	-96.2
103.01	2.1401E+5	4.5297	0.0810	-98.8
103.21	2.1451E+5	4.5326	0.0822	-109.9
103.41	2.1501E+5	4.5311	0.0807	-124.7
103.61	2.1551E+5	4.5354	0.0792	-104.8
103.81	2.1601E+5	4.5354	0.0796	-96.5
103.99	2.1651E+5	4.5354	0.0803	-96.8
104.19	2.1701E+5	4.5326	0.0802	-117.7
104.38	2.1751E+5	4.5326	0.0791	-97.5
104.58	2.1801E+5	4.5297	0.0792	-112.9
104.76	2.1851E+5	4.5326	0.0784	-108.1
104.96	2.1901E+5	4.5340	0.0792	-105.2
105.16	2.1951E+5	4.5340	0.0791	-107.8
105.34	2.2001E+5	4.5311	0.0790	-120.4
105.52	2.2051E+5	4.5340	0.0799	-95.7
105.72	2.2101E+5	4.5297	0.0784	-105.6
105.92	2.2151E+5	4.5326	0.0791	-101.8
106.12	2.2201E+5	4.5368	0.0792	-113.1
106.31	2.2251E+5	4.5311	0.0799	-87.2
106.49	2.2301E+5	4.5354	0.0795	-124.9
106.67	2.2351E+5	4.5340	0.0784	-108.2
106.89	2.2401E+5	4.5354	0.0805	-116.3
107.09	2.2451E+5	4.5368	0.0795	-97.5
107.29	2.2501E+5	4.5340	0.0782	-110.0
107.49	2.2551E+5	4.5382	0.0787	-109.6
107.69	2.2601E+5	4.5382	0.0794	-103.7
107.87	2.2651E+5	4.5340	0.0778	-97.4
108.07	2.2701E+5	4.5297	0.0787	-115.4
108.27	2.2751E+5	4.5326	0.0793	-127.6
108.45	2.2801E+5	4.5354	0.0787	-97.9
108.63	2.2851E+5	4.5368	0.0791	-114.4
108.82	2.2901E+5	4.5354	0.0792	-99.2
109.00	2.2951E+5	4.5354	0.0782	-106.6
109.20	2.3001E+5	4.5340	0.0788	-119.8
109.40	2.3051E+5	4.5354	0.0798	-96.9
109.58	2.3101E+5	4.5396	0.0799	-105.1
109.78	2.3151E+5	4.5368	0.0791	-90.5
109.98	2.3201E+5	4.5368	0.0791	-95.7
110.16	2.3251E+5	4.5396	0.0780	-106.4
110.36	2.3301E+5	4.5354	0.0790	-111.7
110.56	2.3351E+5	4.5425	0.0784	-106.6
110.78	2.3401E+5	4.5354	0.0787	-98.4
111.01	2.3451E+5	4.5396	0.0804	-120.0
111.21	2.3501E+5	4.5410	0.0795	-113.2
111.44	2.3551E+5	4.5382	0.0791	-115.6
111.64	2.3601E+5	4.5368	0.0781	-101.9
111.84	2.3651E+5	4.5368	0.0780	-99.7
112.03	2.3701E+5	4.5425	0.0789	-110.0
112.26	2.3751E+5	4.5340	0.0775	-103.2
112.49	2.3801E+5	4.5396	0.0790	-115.1
112.69	2.3851E+5	4.5326	0.0784	-105.5
112.89	2.3901E+5	4.5354	0.0802	+251.5
113.09	2.3951E+5	4.5410	0.0785	-102.7
113.31	2.4001E+5	4.5368	0.0783	-111.5
113.54	2.4051E+5	4.5396	0.0789	-107.2
113.74	2.4101E+5	4.5382	0.0788	-110.7
113.92	2.4151E+5	4.5368	0.0787	+260.1
114.11	2.4201E+5	4.5368	0.0783	-108.6
114.31	2.4251E+5	4.5396	0.0782	-106.5
114.49	2.4301E+5	4.5410	0.0800	-103.1
114.70	2.4351E+5	4.5425	0.0809	-100.7
114.89	2.4401E+5	4.5396	0.0794	-109.5
115.10	2.4451E+5	4.5382	0.0787	-109.3
115.29	2.4501E+5	4.5382	0.0787	-104.6
115.47	2.4551E+5	4.5382	0.0788	-108.4
115.65	2.4601E+5	4.5368	0.0778	-101.5
115.85	2.4651E+5	4.5368	Inf	-461.7
116.04	2.4701E+5	4.5425	0.0782	-111.0
116.25	2.4751E+5	4.5354	0.0762	-105.2
116.48	2.4801E+5	4.5382	0.0802	-112.9
116.70	2.4851E+5	4.5396	0.0794	-109.9
116.90	2.4901E+5	4.5410	0.0783	-107.1
117.13	2.4951E+5	4.5368	0.0775	-106.8
117.33	2.5001E+5	4.5382	0.0776	-110.1
117.51	2.5051E+5	4.5368	0.0772	-101.6
117.70	2.5101E+5	4.5382	0.0800	-104.8
117.90	2.5151E+5	4.5368	0.0776	-106.1
118.10	2.5201E+5	4.5340	0.0802	-110.6
118.30	2.5251E+5	4.5425	0.0805	-112.6
118.50	2.5301E+5	4.5396	0.0807	-102.2
118.69	2.5351E+5	4.5410	0.0757	-106.7
118.91	2.5401E+5	4.5425	0.0806	-105.0
119.11	2.5451E+5	4.5368	0.0791	-108.5
119.33	2.5501E+5	4.5410	0.0802	-109.4
119.54	2.5551E+5	4.5368	0.0798	-114.2
119.76	2.5601E+5	4.5425	0.0786	-100.4
119.96	2.5651E+5	4.5354	0.0816	-105.5
120.19	2.5701E+5	4.5439	0.0807	-106.7
120.41	2.5751E+5	4.5326	0.0804	-107.1
120.61	2.5801E+5	4.5410	0.0804	-109.6
120.81	2.5851E+5	4.5439	Inf	-111.5
120.99	2.5901E+5	4.5439	0.0806	-109.3
121.17	2.5951E+5	4.5382	0.0816	-113.2
121.39	2.6001E+5	4.5410	0.0818	-111.4
121.59	2.6051E+5	4.5439	0.0810	-111.3
121.79	2.6101E+5	4.5396	0.0800	-101.7
121.99	2.6151E+5	4.5439	0.0821	-114.0
122.20	2.6201E+5	4.5410	0.0809	-106.8
122.40	2.6251E+5	4.5410	0.0805	-104.4
122.59	2.6301E+5	4.5354	0.0807	-112.0
122.79	2.6351E+5	4.5495	0.0828	-111.1
123.00	2.6401E+5	4.5425	0.0825	-104.9
123.20	2.6451E+5	4.5396	Inf	-104.5
123.42	2.6501E+5	4.5340	0.0811	-108.0
123.62	2.6551E+5	4.5453	0.0821	-106.7
123.83	2.6601E+5	4.5439	0.0818	-108.2
124.02	2.6651E+5	4.5410	0.0828	-102.4
124.22	2.6701E+5	4.5410	0.0805	-109.9
124.43	2.6751E+5	4.5368	0.0822	-108.3
124.65	2.6801E+5	4.5410	0.0807	-107.7
124.88	2.6851E+5	4.5439	0.0813	-108.3
125.06	2.6901E+5	4.5396	0.0805	-106.5
125.27	2.6951E+5	4.5396	0.0811	-109.9
125.45	2.7001E+5	4.5453	0.0835	-116.8
125.66	2.7051E+5	4.5396	0.0816	-107.3
125.88	2.7101E+5	4.5396	0.0779	-100.8
126.08	2.7151E+5	4.5410	0.0832	-110.2
126.30	2.7201E+5	4.5439	0.0838	-106.5
126.48	2.7251E+5	4.5425	0.0816	-106.9
126.68	2.7301E+5	4.5410	0.0829	-106.2
126.88	2.7351E+5	4.5410	0.0837	-110.2
127.06	2.7401E+5	4.5439	0.0838	-106.8
127.24	2.7451E+5	4.5439	0.0840	-107.9
127.43	2.7501E+5	4.5439	0.0822	-105.7
127.63	2.7551E+5	4.5425	0.0863	+243.9
127.83	2.7601E+5	4.5354	0.0825	-105.0
128.04	2.7651E+5	4.5410	0.0831	-108.5
128.26	2.7701E+5	4.5467	0.0834	-105.6
128.44	2.7751E+5	4.5368	0.0872	-103.4
128.66	2.7801E+5	4.5467	0.0845	-108.6
128.89	2.7851E+5	4.5425	0.0840	-101.9
129.09	2.7901E+5	4.5495	0.0826	-109.0
129.29	2.7951E+5	4.5439	0.0834	-106.6
129.49	2.8001E+5	4.5382	0.0864	-118.3
129.71	2.8051E+5	4.5439	0.0848	-110.0
129.92	2.8101E+5	4.5382	0.0781	-98.3
130.14	2.8151E+5	4.5410	0.0862	-119.9
130.35	2.8201E+5	4.5439	0.0853	-112.0
130.55	2.8251E+5	4.5354	0.0855	-113.8
130.75	2.8301E+5	4.5425	0.0853	-108.1
130.95	2.8351E+5	4.5382	0.0846	-112.5
131.15	2.8401E+5	4.5368	0.0856	-105.3
131.35	2.8451E+5	4.5425	0.0854	-112.2
131.59	2.8501E+5	4.5467	0.0860	-112.5
131.78	2.8551E+5	4.5368	0.0861	-115.7
131.98	2.8601E+5	4.5410	0.0857	+255.9
132.18	2.8651E+5	4.5467	0.0872	-115.7
132.38	2.8701E+5	4.5467	0.0864	-108.0
132.60	2.8751E+5	4.5453	0.0860	-106.7
132.78	2.8801E+5	4.5410	0.0872	-109.9
132.98	2.8851E+5	4.5453	0.0866	-111.8
133.18	2.8901E+5	4.5396	0.0881	-120.6
133.40	2.8951E+5	4.5467	0.0882	-115.0
133.60	2.9001E+5	4.5340	0.0883	-108.7
133.80	2.9051E+5	4.5453	0.0876	-106.8
134.00	2.9101E+5	4.5524	0.0875	-110.3
134.18	2.9151E+5	4.5524	0.0912	-106.2
134.38	2.9201E+5	4.5396	0.0875	-112.1
134.59	2.9251E+5	4.5410	0.0893	-111.7
134.81	2.9301E+5	4.5467	0.0889	-111.3
134.99	2.9351E+5	4.5382	0.0887	-115.5
135.19	2.9401E+5	4.5439	0.0885	-107.8
135.39	2.9451E+5	4.5467	0.0889	-112.7
135.58	2.9501E+5	4.5509	0.0891	-102.5
135.76	2.9551E+5	4.5481	0.0937	-114.3
135.96	2.9601E+5	4.5467	0.0900	-107.0
136.18	2.9651E+5	4.5354	0.0892	-117.2
136.39	2.9701E+5	4.5439	0.0891	-110.1
136.59	2.9751E+5	4.5524	Inf	-101.2
136.77	2.9801E+5	4.5425	0.0901	-112.6
136.97	2.9851E+5	4.5509	0.0906	-113.8
137.16	2.9901E+5	4.5481	0.0906	-110.9
137.34	2.9951E+5	4.5410	0.0899	-109.3
137.52	3.0001E+5	4.5495	0.0892	-112.9
137.72	3.0051E+5	4.5467	0.0916	-110.1
137.92	3.0101E+5	4.5382	0.0903	-96.1
138.15	3.0151E+5	4.5467	0.0910	-110.5
138.35	3.0201E+5	4.5538	0.0915	-113.6
138.55	3.0251E+5	4.5495	0.0922	-112.4
138.74	3.0301E+5	4.5481	0.0938	-110.4
138.94	3.0351E+5	4.5453	0.0917	-110.1
139.13	3.0401E+5	4.5439	0.0925	+257.1
139.32	3.0451E+5	4.5439	0.0932	-111.3
139.52	3.0501E+5	4.5467	0.0933	-116.0
139.70	3.0551E+5	4.5396	0.0941	-110.6
139.93	3.0601E+5	4.5453	0.0931	-109.2
140.15	3.0651E+5	4.5425	Inf	+238.1
140.33	3.0701E+5	4.5467	0.0935	-119.1
140.51	3.0751E+5	4.5453	0.0953	-107.4
140.72	3.0801E+5	4.5453	0.0950	-110.5
140.90	3.0851E+5	4.5410	0.0944	-110.4
141.08	3.0901E+5	4.5410	0.0944	+255.2
141.26	3.0951E+5	4.5439	0.0949	-117.1
141.45	3.1001E+5	4.5354	0.0956	-111.4
141.66	3.1051E+5	4.5467	0.0950	-110.8
141.88	3.1101E+5	4.5467	0.0949	-122.7
142.06	3.1151E+5	4.5524	0.0959	-108.6
142.26	3.1201E+5	4.5354	0.0978	-111.3
142.48	3.1251E+5	4.5382	0.0989	-110.3
142.68	3.1301E+5	4.5467	0.0983	-114.7
142.89	3.1351E+5	4.5439	0.0957	-107.0
143.09	3.1401E+5	4.5410	0.0987	-112.7
143.29	3.1451E+5	4.5481	0.0962	-110.5
143.49	3.1501E+5	4.5368	0.0982	-116.2
143.72	3.1551E+5	4.5538	0.0966	-111.9
143.94	3.1601E+5	4.5453	0.0984	-112.4
144.14	3.1651E+5	4.5481	0.0977	-117.4
144.34	3.1701E+5	4.5524	0.1006	-117.4
144.54	3.1751E+5	4.5439	0.0986	-114.3
144.74	3.1801E+5	4.5439	0.0993	-119.4
144.92	3.1851E+5	4.5425	0.0979	-111.1
145.12	3.1901E+5	4.5382	0.0998	-114.1
145.36	3.1951E+5	4.5382	0.1029	-107.3
145.56	3.2001E+5	4.5481	0.1020	-110.3
145.77	3.2051E+5	4.5425	0.1011	-111.1
145.97	3.2101E+5	4.5509	0.1006	-116.8
146.15	3.2151E+5	4.5439	0.1019	-115.2
146.35	3.2201E+5	4.5453	0.1035	-111.5
146.55	3.2251E+5	4.5354	0.1035	-115.5
146.75	3.2301E+5	4.5410	0.1039	-112.7
146.95	3.2351E+5	4.5425	0.0997	-108.5
147.17	3.2401E+5	4.5467	0.1054	-114.6
147.37	3.2451E+5	4.5439	0.1020	-113.8
147.57	3.2501E+5	4.5467	0.1061	-111.7
147.77	3.2551E+5	4.5453	0.1018	-117.6
147.97	3.2601E+5	4.5467	0.1066	-112.2
148.17	3.2651E+5	4.5439	0.1048	-115.4
148.37	3.2701E+5	4.5396	0.1008	-119.0
148.58	3.2751E+5	4.5439	0.1012	+252.3
148.80	3.2801E+5	4.5481	0.1025	-108.4
149.00	3.2851E+5	4.5509	0.1063	-115.3
149.20	3.2901E+5	4.5410	0.1103	-115.4
149.40	3.2951E+5	4.5481	0.1044	-111.8
149.60	3.3001E+5	4.5495	0.1102	-116.7
149.80	3.3051E+5	4.5396	0.1133	-109.1
150.01	3.3101E+5	4.5410	0.1071	-118.3
150.23	3.3151E+5	4.5509	0.1099	-111.7
150.43	3.3201E+5	4.5354	0.1235	-119.6
150.65	3.3251E+5	4.5410	0.1066	-112.2
150.86	3.3301E+5	4.5467	0.1142	-112.3
151.08	3.3351E+5	4.5425	0.1087	-114.3
151.28	3.3401E+5	4.5326	0.1074	-114.5
151.49	3.3451E+5	4.5439	0.1097	-117.3
151.72	3.3501E+5	4.5566	0.1255	-121.3
151.93	3.3551E+5	4.5509	0.1119	-113.1
152.12	3.3601E+5	4.5481	0.1136	-117.7
152.32	3.3651E+5	4.5439	0.1157	-113.4
152.52	3.3701E+5	4.5439	0.1104	-117.2
152.72	3.3751E+5	4.5425	0.1188	-118.8
152.92	3.3801E+5	4.5453	0.1153	-117.6
153.12	3.3851E+5	4.5410	0.1126	-116.0
153.32	3.3901E+5	4.5439	0.1128	-112.0
153.50	3.3951E+5	4.5368	0.1149	-110.8
153.72	3.4001E+5	4.5453	0.1180	-116.5
153.94	3.4051E+5	4.5439	0.1150	-115.2
154.14	3.4101E+5	4.5453	0.1202	-113.9
154.34	3.4151E+5	4.5425	0.1185	-111.7
154.54	3.4201E+5	4.5481	0.1203	-118.2
154.74	3.4251E+5	4.5481	0.1120	-122.8
154.94	3.4301E+5	4.5410	0.1174	-118.4
155.13	3.4351E+5	4.5509	0.1173	-115.3
155.32	3.4401E+5	4.5453	0.1202	-115.5
155.52	3.4451E+5	4.5467	0.1208	-117.5
155.70	3.4501E+5	4.5524	0.1214	-116.8
155.90	3.4551E+5	4.5481	0.1239	-118.1
156.12	3.4601E+5	4.5538	0.1228	+249.0
156.32	3.4651E+5	4.5453	0.1244	-113.6
156.52	3.4701E+5	4.5467	0.1215	-111.8
156.72	3.4751E+5	4.5396	0.1263	-113.0
156.93	3.4801E+5	4.5425	0.1262	-114.7
157.13	3.4851E+5	4.5396	0.1214	-116.3
157.36	3.4901E+5	4.5453	0.1272	-113.6
157.58	3.4951E+5	4.5509	0.1238	-118.6
157.78	3.5001E+5	4.5382	0.1280	-113.9
158.00	3.5051E+5	4.5439	0.1316	-115.8
158.21	3.5101E+5	4.5495	0.1310	-113.8
158.39	3.5151E+5	4.5509	0.1267	-117.0
158.59	3.5201E+5	4.5410	0.1418	-115.7
158.79	3.5251E+5	4.5368	0.1299	-115.6
159.01	3.5301E+5	4.5425	0.1275	-112.0
159.24	3.5351E+5	4.5425	0.1282	-116.8
159.44	3.5401E+5	4.5410	0.1316	-116.5
159.64	3.5451E+5	4.5410	0.1324	-114.7
159.84	3.5501E+5	4.5495	0.1314	-113.7
160.04	3.5551E+5	4.5410	0.1478	-111.6
160.26	3.5601E+5	4.5382	0.1368	-112.1
160.47	3.5651E+5	4.5396	0.1367	-113.8
160.66	3.5701E+5	4.5354	0.1324	-115.5
160.85	3.5751E+5	4.5467	0.1425	-113.9
161.09	3.5801E+5	4.5481	0.1415	-115.7
161.29	3.5851E+5	4.5396	0.1399	-111.7
161.51	3.5901E+5	4.5439	0.1408	-111.4
161.74	3.5951E+5	4.5382	0.1421	-113.3
161.94	3.6001E+5	4.5453	0.1405	-112.0
162.17	3.6051E+5	4.5439	0.1445	-111.7
162.37	3.6101E+5	4.5467	0.1404	-116.1
162.57	3.6151E+5	4.5382	0.1465	-111.1
162.78	3.6201E+5	4.5467	0.1570	-119.0
163.00	3.6251E+5	4.5439	0.1447	-113.3
163.20	3.6301E+5	4.5382	0.1443	-116.9
163.40	3.6351E+5	4.5368	0.1460	-114.1
163.60	3.6401E+5	4.5396	0.1506	-113.6
163.80	3.6451E+5	4.5396	0.1516	-120.4
163.98	3.6501E+5	4.5354	0.1551	-117.5
164.18	3.6551E+5	4.5467	0.1500	-110.6
164.40	3.6601E+5	4.5453	0.1518	-113.8
164.60	3.6651E+5	4.5354	0.1512	-114.1
164.80	3.6701E+5	4.5425	0.1522	-113.2
165.01	3.6751E+5	4.5354	0.1594	-112.9
165.25	3.6801E+5	4.5354	0.1556	-114.1
165.45	3.6851E+5	4.5368	0.1535	-118.9
165.65	3.6901E+5	4.5410	0.1463	-116.4
165.86	3.6951E+5	4.5297	0.1543	-118.1
166.08	3.7001E+5	4.5354	0.1566	-111.0
166.28	3.7051E+5	4.5340	0.1595	-117.7
166.48	3.7101E+5	4.5326	0.1480	-119.1
166.68	3.7151E+5	4.5354	0.1671	-110.8
166.88	3.7201E+5	4.5340	0.1581	-114.0
167.07	3.7251E+5	4.5326	0.1656	-116.2
167.28	3.7301E+5	4.5311	0.1641	-116.8
167.49	3.7351E+5	4.5326	0.1650	-116.9
167.69	3.7401E+5	4.5354	0.1700	-114.5
167.89	3.7451E+5	4.5326	0.1763	-113.4
168.09	3.7501E+5	4.5326	0.1705	-114.9
168.29	3.7551E+5	4.5297	0.1683	-112.5
168.49	3.7601E+5	4.5283	0.1687	-112.7
168.67	3.7651E+5	4.5269	0.1756	-115.9
168.87	3.7701E+5	4.5255	0.1753	-114.6
169.06	3.7751E+5	4.5311	0.1809	-115.5
169.25	3.7801E+5	4.5297	0.1827	-109.5
169.46	3.7851E+5	4.5326	0.1847	-110.5
169.65	3.7901E+5	4.5326	0.1770	-114.4
169.85	3.7951E+5	4.5283	0.1802	-118.8
170.05	3.8001E+5	4.5283	0.1748	-116.0
170.25	3.8051E+5	4.5241	0.1903	-111.7
170.45	3.8101E+5	4.5297	0.1858	-117.7
170.65	3.8151E+5	4.5311	0.1902	-112.9
170.85	3.8201E+5	4.5255	0.1878	-111.3
171.05	3.8251E+5	4.5297	0.1908	-113.4
171.25	3.8301E+5	4.5297	0.1967	-112.6
171.45	3.8351E+5	4.5269	0.1899	-114.6
171.65	3.8401E+5	4.5198	0.2061	-113.6
171.85	3.8451E+5	4.5255	0.1951	-114.1
172.05	3.8501E+5	4.5311	0.1959	-112.0
172.25	3.8551E+5	4.5326	0.2099	-109.2
172.45	3.8601E+5	4.5241	0.2031	-110.8
172.65	3.8651E+5	4.5269	0.2056	-108.8
172.85	3.8701E+5	4.5326	0.2060	-112.4
173.05	3.8751E+5	4.5283	0.2168	-109.5
173.25	3.8801E+5	4.5227	0.2049	-110.6
173.44	3.8851E+5	4.5283	0.2119	-111.8
173.65	3.8901E+5	4.5283	0.2144	-112.8
173.84	3.8951E+5	4.5212	0.2115	-114.2
174.04	3.9001E+5	4.5297	0.2210	-110.2
174.24	3.9051E+5	4.5241	0.2166	-111.3
174.44	3.9101E+5	4.5269	0.2248	-110.8
174.64	3.9151E+5	4.5354	0.2278	-110.9
174.84	3.9201E+5	4.5241	0.2259	-114.1
175.04	3.9251E+5	4.5311	0.2148	-108.9
175.24	3.9301E+5	4.5241	0.2290	-110.5
175.44	3.9351E+5	4.5241	0.2275	-110.2
175.64	3.9401E+5	4.5269	0.2361	-109.6
175.84	3.9451E+5	4.5269	0.2324	-108.5
176.04	3.9501E+5	4.5255	0.2490	-108.7
176.24	3.9551E+5	4.5241	0.2380	-108.7
176.44	3.9601E+5	4.5326	0.2478	-106.9
176.64	3.9651E+5	4.5269	0.2467	-107.6
176.84	3.9701E+5	4.5212	0.2450	-107.7
177.04	3.9751E+5	4.5227	0.2534	-107.1
177.24	3.9801E+5	4.5255	0.2533	-108.1
177.42	3.9851E+5	4.5227	0.2532	-106.7
177.60	3.9901E+5	4.5241	0.2656	-105.3
177.80	3.9951E+5	4.5269	0.2507	-107.9
178.00	4.0001E+5	4.5255	0.2733	-106.2
178.20	4.0051E+5	4.5241	0.2835	-108.7
178.40	4.0101E+5	4.5269	0.2689	-105.0
178.60	4.0151E+5	4.5283	0.2728	-106.9
178.80	4.0201E+5	4.5255	0.2785	-104.6
179.00	4.0251E+5	4.5241	0.2840	-105.4
179.20	4.0301E+5	4.5311	0.2839	-104.7
179.38	4.0351E+5	4.5255	0.2953	-103.8
179.58	4.0401E+5	4.5283	0.2864	-102.3
179.78	4.0451E+5	4.5269	0.2944	-102.5
179.98	4.0501E+5	4.5212	0.3037	-103.7
180.18	4.0551E+5	4.5241	0.2970	-104.3
180.38	4.0601E+5	4.5297	0.2950	-103.5
180.58	4.0651E+5	4.5241	0.3103	-101.6
180.78	4.0701E+5	4.5269	0.3167	-103.5
180.98	4.0751E+5	4.5227	0.3257	-100.4
181.18	4.0801E+5	4.5227	0.3136	-99.6
181.38	4.0851E+5	4.5283	0.3255	-99.4
181.58	4.0901E+5	4.5255	0.3281	-99.6
181.78	4.0951E+5	4.5269	0.3371	-96.9
181.98	4.1001E+5	4.5227	0.3388	-99.5
182.18	4.1051E+5	4.5255	0.3485	-99.1
182.38	4.1101E+5	4.5241	0.3461	-96.6
182.58	4.1151E+5	4.5297	0.3500	-95.4
182.78	4.1201E+5	4.5184	0.3625	-96.7
182.98	4.1251E+5	4.5255	0.3697	-96.6
183.18	4.1301E+5	4.5212	0.3689	-91.9
183.37	4.1351E+5	4.5269	0.3728	-93.3
183.57	4.1401E+5	4.5212	0.3713	-93.1
183.77	4.1451E+5	4.5255	0.3822	-91.0
183.97	4.1501E+5	4.5269	0.3902	-90.7
184.17	4.1551E+5	4.5326	0.3929	-91.6
184.37	4.1601E+5	4.5255	0.3970	-90.9
184.57	4.1651E+5	4.5297	0.3976	-89.0
184.77	4.1701E+5	4.5269	0.4066	-89.8
184.97	4.1751E+5	4.5227	0.4089	-87.2
185.17	4.1801E+5	4.5269	0.4247	-87.3
185.37	4.1851E+5	4.5326	0.4254	-86.3
185.53	4.1901E+5	4.5283	0.4327	-85.6
185.72	4.1951E+5	4.5269	0.4238	-86.5
185.90	4.2001E+5	4.5283	0.4428	-82.0
186.08	4.2051E+5	4.5297	0.4371	-85.1
186.27	4.2101E+5	4.5283	0.4534	-82.7
186.45	4.2151E+5	4.5311	0.4579	-79.3
186.63	4.2201E+5	4.5227	0.4561	-81.6
186.82	4.2251E+5	4.5269	0.4701	-80.4
187.00	4.2301E+5	4.5283	0.4716	-77.1
187.18	4.2351E+5	4.5283	0.4760	-76.0
187.37	4.2401E+5	4.5269	0.4789	-76.0
187.55	4.2451E+5	4.5241	0.4876	-75.8
187.73	4.2501E+5	4.5311	0.4855	-72.7
187.90	4.2551E+5	4.5269	0.4906	-74.0
188.08	4.2601E+5	4.5326	0.5033	-71.2
188.28	4.2651E+5	4.5297	0.5179	-70.0
188.48	4.2701E+5	4.5255	0.5127	-67.5
188.68	4.2751E+5	4.5255	0.5192	-67.1
188.88	4.2801E+5	4.5326	0.5090	-63.4
189.08	4.2851E+5	4.5255	0.5135	-64.3
189.28	4.2901E+5	4.5311	0.5312	-62.3
189.48	4.2951E+5	4.5326	0.5227	-62.0
189.68	4.3001E+5	4.5297	0.5235	-60.2
189.86	4.3051E+5	4.5269	0.5370	-59.0
190.06	4.3101E+5	4.5283	0.5261	-56.9
190.26	4.3151E+5	4.5326	0.5142	-56.2
190.46	4.3201E+5	4.5326	0.5357	-55.4
190.66	4.3251E+5	4.5283	0.5295	-54.5
190.86	4.3301E+5	4.5297	0.5295	-53.3
191.04	4.3351E+5	4.5326	0.5371	-49.6
191.24	4.3401E+5	4.5311	0.5262	-51.0
191.44	4.3451E+5	4.5297	0.5235	-47.3
191.64	4.3501E+5	4.5269	0.5448	-48.2
191.84	4.3551E+5	4.5283	0.5329	-45.6
192.04	4.3601E+5	4.5311	0.5380	-43.9
192.24	4.3651E+5	4.5297	0.5282	-42.5
192.44	4.3701E+5	4.5326	0.5265	-40.3
192.64	4.3751E+5	4.5255	0.5221	-41.3
192.84	4.3801E+5	4.5297	0.5189	-38.8
193.04	4.3851E+5	4.5326	0.5143	-37.6
193.24	4.3901E+5	4.5368	0.5084	-34.4
193.44	4.3951E+5	4.5241	0.5094	-35.0
193.62	4.4001E+5	4.5311	0.5070	-32.2
193.82	4.4051E+5	4.5326	0.5040	-32.3
194.02	4.4101E+5	4.5340	0.5141	-30.2
194.22	4.4151E+5	4.5311	0.4933	-31.3
194.42	4.4201E+5	4.5311	0.4818	-28.9
194.62	4.4251E+5	4.5354	0.4763	-26.3
194.82	4.4301E+5	4.5283	0.4685	-26.1
195.02	4.4351E+5	4.5283	0.4593	-24.6
195.22	4.4401E+5	4.5340	0.4616	-23.0
195.42	4.4451E+5	4.5269	0.4582	-23.5
195.62	4.4501E+5	4.5283	0.4523	-20.5
195.81	4.4551E+5	4.5311	0.4460	-23.6
196.01	4.4601E+5	4.5311	0.4419	-21.9
196.22	4.4651E+5	4.5311	0.4286	-17.4
196.41	4.4701E+5	4.5283	0.4385	-20.7
196.61	4.4751E+5	4.5269	0.4360	-17.1
196.81	4.4801E+5	4.5311	0.4184	-17.7
197.01	4.4851E+5	4.5311	0.4155	-17.7
197.21	4.4901E+5	4.5326	0.4123	-13.7
197.41	4.4951E+5	4.5311	0.4081	-13.6
197.61	4.5001E+5	4.5311	0.4008	-15.5
197.81	4.5051E+5	4.5354	0.3956	-11.0
198.01	4.5101E+5	4.5311	0.3866	-10.6
198.21	4.5151E+5	4.5368	0.3832	-10.5
198.41	4.5201E+5	4.5311	0.3782	-11.5
198.61	4.5251E+5	4.5340	0.3666	-10.1
198.81	4.5301E+5	4.5311	0.3624	-10.7
199.01	4.5351E+5	4.5269	0.3619	-9.3
199.19	4.5401E+5	4.5311	0.3540	-7.2
199.39	4.5451E+5	4.5311	0.3619	-8.3
199.59	4.5501E+5	4.5340	0.3523	-5.8
199.79	4.5551E+5	4.5354	0.3413	-5.3
199.99	4.5601E+5	4.5354	0.3357	-5.8
200.19	4.5651E+5	4.5340	0.3288	-7.6
200.39	4.5701E+5	4.5354	0.3395	-4.5
200.59	4.5751E+5	4.5255	0.3373	-2.8
200.79	4.5801E+5	4.5340	0.3170	-1.0
200.99	4.5851E+5	4.5368	0.3230	-1.0
201.19	4.5901E+5	4.5326	0.3155	-3.4
201.39	4.5951E+5	4.5340	0.3068	-3.0
201.59	4.6001E+5	4.5297	0.3196	+0.4
201.79	4.6051E+5	4.5340	0.3069	-4.6
201.99	4.6101E+5	4.5354	0.2995	+1.0
202.18	4.6151E+5	4.5297	0.2981	+3.2
202.38	4.6201E+5	4.5340	0.2930	+4.1
202.58	4.6251E+5	4.5354	0.2944	-0.6
202.77	4.6301E+5	4.5311	0.2812	+1.1
202.97	4.6351E+5	4.5368	0.2820	-0.3
203.15	4.6401E+5	4.5382	0.2903	+1.4
203.35	4.6451E+5	4.5340	0.2825	+2.1
203.55	4.6501E+5	4.5326	0.2726	+1.4
203.75	4.6551E+5	4.5283	0.2752	+2.7
203.95	4.6601E+5	4.5340	0.2716	+4.2
204.15	4.6651E+5	4.5410	0.2648	+3.8
204.36	4.6701E+5	4.5326	0.2718	+2.2
204.58	4.6751E+5	4.5326	0.2533	+4.4
204.78	4.6801E+5	4.5354	0.2614	+5.5
204.98	4.6851E+5	4.5340	0.2515	+4.4
205.18	4.6901E+5	4.5382	0.2521	+6.0
205.36	4.6951E+5	4.5368	0.2441	+4.4
205.56	4.7001E+5	4.5368	0.2539	+3.0
205.76	4.7051E+5	4.5297	0.2535	+4.8
205.96	4.7101E+5	4.5326	0.2376	+6.0
206.16	4.7151E+5	4.5354	0.2605	+3.4
206.36	4.7201E+5	4.5467	0.2500	+7.4
206.59	4.7251E+5	4.5326	0.2389	+5.3
206.81	4.7301E+5	4.5368	0.2287	+6.8
207.01	4.7351E+5	4.5382	0.2298	+6.0
207.21	4.7401E+5	4.5354	0.2356	+8.3
207.41	4.7451E+5	4.5382	0.2240	+2.7
207.61	4.7501E+5	4.5354	0.2166	+7.8
207.81	4.7551E+5	4.5354	0.2184	+7.0
208.01	4.7601E+5	4.5382	0.2110	+5.9
208.21	4.7651E+5	4.5382	0.2331	+3.1
208.41	4.7701E+5	4.5410	0.2230	+4.1
208.62	4.7751E+5	4.5326	0.2204	+8.0
208.85	4.7801E+5	4.5297	0.2190	+8.1
209.05	4.7851E+5	4.5340	0.2129	+6.5
209.25	4.7901E+5	4.5368	0.2182	+9.1
209.45	4.7951E+5	4.5354	0.2060	+7.1
209.65	4.8001E+5	4.5354	0.2109	+8.3
209.85	4.8051E+5	4.5410	0.2071	+7.6
210.09	4.8101E+5	4.5368	0.2160	+8.3
210.30	4.8151E+5	4.5368	0.1993	+8.6
210.50	4.8201E+5	4.5354	0.1916	+9.8
210.70	4.8251E+5	4.5396	0.1992	+9.9
210.90	4.8301E+5	4.5396	0.2001	+8.6
211.08	4.8351E+5	4.5311	0.1961	+6.0
211.28	4.8401E+5	4.5354	0.1910	+8.6
211.48	4.8451E+5	4.5382	0.1870	+9.7
211.68	4.8501E+5	4.5453	0.1936	+12.0
211.90	4.8551E+5	4.5410	0.1914	+9.8
212.10	4.8601E+5	4.5368	0.1850	+8.7
212.31	4.8651E+5	4.5396	0.1916	+11.8
212.51	4.8701E+5	4.5340	0.1820	+11.0
212.71	4.8751E+5	4.5311	0.1845	+13.2
212.91	4.8801E+5	4.5410	0.1879	+12.1
213.13	4.8851E+5	4.5340	0.1757	+10.1
213.34	4.8901E+5	4.5368	0.1799	+12.9
213.54	4.8951E+5	4.5410	0.1670	+13.0
213.76	4.9001E+5	4.5382	0.1686	+12.0
213.98	4.9051E+5	4.5410	0.1686	+7.3
214.18	4.9101E+5	4.5354	0.1737	+11.4
214.39	4.9151E+5	4.5396	0.1707	+9.3
214.59	4.9201E+5	4.5340	0.1584	+11.8
214.79	4.9251E+5	4.5396	0.1726	+8.8
214.99	4.9301E+5	4.5326	0.1718	+12.6
215.19	4.9351E+5	4.5382	0.1618	+8.6
215.39	4.9401E+5	4.5382	0.1681	+10.1
215.59	4.9451E+5	4.5382	0.1706	+9.7
215.79	4.9501E+5	4.5410	0.1652	+10.2
216.01	4.9551E+5	4.5368	0.1627	+12.2
216.22	4.9601E+5	4.5425	0.1512	+13.3
216.44	4.9651E+5	4.5396	0.1604	+10.8
216.65	4.9701E+5	4.5326	0.1582	+10.7
216.85	4.9751E+5	4.5382	0.1559	+9.7
217.05	4.9801E+5	4.5382	0.1576	+11.9
217.25	4.9851E+5	4.5410	0.1604	+13.4
217.47	4.9901E+5	4.5340	0.1450	+13.0
217.69	4.9951E+5	4.5425	0.1550	+7.7
217.90	5.0001E+5	4.5368	0.1519	+13.4
218.12	5.0051E+5	4.5396	0.1469	+10.6
218.32	5.0101E+5	4.5368	0.1564	+16.0
218.52	5.0151E+5	4.5340	0.1399	+10.9
218.72	5.0201E+5	4.5354	0.1402	+11.3
218.90	5.0251E+5	4.5439	0.1480	+10.0
219.12	5.0301E+5	4.5340	0.1451	+13.1
219.33	5.0351E+5	4.5396	0.1517	+16.1
219.53	5.0401E+5	4.5340	0.1440	+14.3
219.73	5.0451E+5	4.5439	0.1445	+13.8
219.93	5.0501E+5	4.5382	0.1491	+10.9
220.15	5.0551E+5	4.5368	0.1434	+12.5
220.35	5.0601E+5	4.5396	0.1299	+14.2
220.55	5.0651E+5	4.5354	0.1407	+15.2
220.75	5.0701E+5	4.5340	0.1380	+13.6
220.94	5.0751E+5	4.5368	0.1386	+11.8
221.13	5.0801E+5	4.5297	0.1356	+10.8
221.33	5.0851E+5	4.5340	0.1301	+14.2
221.53	5.0901E+5	4.5410	0.1399	+11.3
221.76	5.0951E+5	4.5354	0.1367	+15.7
221.98	5.1001E+5	4.5340	0.1354	+13.5
222.18	5.1051E+5	4.5382	0.1316	+13.8
222.37	5.1101E+5	4.5368	0.1401	+11.9
222.57	5.1151E+5	4.5382	0.1340	+14.6
222.77	5.1201E+5	4.5382	0.1244	+15.4
222.97	5.1251E+5	4.5340	0.1298	+13.9
223.17	5.1301E+5	4.5425	0.1354	+16.6
223.41	5.1351E+5	4.5382	0.1311	+7.9
223.64	5.1401E+5	4.5297	0.1273	+12.6
223.84	5.1451E+5	4.5396	0.1216	+17.0
224.04	5.1501E+5	4.5410	0.1355	+15.0
224.25	5.1551E+5	4.5340	0.1335	+12.9
224.47	5.1601E+5	4.5396	0.1373	+15.5
224.67	5.1651E+5	4.5368	0.1296	+9.4
224.87	5.1701E+5	4.5396	0.1330	+10.0
225.07	5.1751E+5	4.5283	0.1256	+14.1
225.27	5.1801E+5	4.5382	0.1203	+10.2
225.47	5.1851E+5	4.5396	0.1202	+13.2
225.65	5.1901E+5	4.5368	0.1298	+11.8
225.85	5.1951E+5	4.5354	0.1254	+13.9
226.05	5.2001E+5	4.5439	0.1253	+13.7
226.25	5.2051E+5	4.5354	0.1244	+16.4
226.47	5.2101E+5	4.5368	0.1245	+14.6
226.65	5.2151E+5	4.5382	0.1227	+13.7
226.85	5.2201E+5	4.5354	0.1292	+12.7
227.05	5.2251E+5	4.5382	0.1161	+11.6
227.25	5.2301E+5	4.5340	0.1195	+13.2
227.45	5.2351E+5	4.5425	0.1273	+9.0
227.66	5.2401E+5	4.5354	0.1158	+15.6
227.88	5.2451E+5	4.5368	0.1128	+13.3
228.08	5.2501E+5	4.5368	0.1134	+10.4
228.26	5.2551E+5	4.5354	0.1177	+17.9
228.46	5.2601E+5	4.5354	0.1183	+8.3
228.66	5.2651E+5	4.5439	0.1147	+11.5
228.88	5.2701E+5	4.5311	0.1267	+14.7
229.11	5.2751E+5	4.5382	0.1142	+6.0
229.31	5.2801E+5	4.5326	0.1132	+13.1
229.51	5.2851E+5	4.5354	0.1138	+12.7
229.69	5.2901E+5	4.5396	0.1213	+14.7
229.89	5.2951E+5	4.5368	0.1158	+11.5
230.09	5.3001E+5	4.5382	0.1077	+13.9
230.29	5.3051E+5	4.5396	0.1168	+8.3
230.49	5.3101E+5	4.5410	0.1049	+18.1
230.71	5.3151E+5	4.5326	0.1063	+15.1
230.92	5.3201E+5	4.5368	0.1100	+18.0
231.12	5.3251E+5	4.5340	0.0998	+9.4
231.32	5.3301E+5	4.5382	0.1101	+16.0
231.52	5.3351E+5	4.5410	0.1071	+9.7
231.74	5.3401E+5	4.5368	0.1077	+7.2
231.94	5.3451E+5	4.5396	0.1071	+9.7
232.12	5.3501E+5	4.5453	0.1142	+11.1
232.35	5.3551E+5	4.5382	0.1029	+11.1
232.57	5.3601E+5	4.5340	0.0992	+13.8
232.77	5.3651E+5	4.5410	0.1100	+11.1
232.99	5.3701E+5	4.5382	0.1054	+19.6
233.20	5.3751E+5	4.5410	0.1025	+16.8
233.44	5.3801E+5	4.5382	0.1015	+8.6
233.63	5.3851E+5	4.5368	0.1031	+14.5
233.84	5.3901E+5	4.5396	0.0996	+15.4
234.03	5.3951E+5	4.5354	0.1044	+12.3
234.23	5.4001E+5	4.5368	0.1108	+10.4
234.43	5.4051E+5	4.5396	0.1063	+8.2
234.63	5.4101E+5	4.5368	0.1078	+14.5
234.83	5.4151E+5	4.5354	0.1041	+12.1
235.03	5.4201E+5	4.5425	0.1015	+13.0
235.25	5.4251E+5	4.5439	0.0963	+14.8
235.45	5.4301E+5	4.5340	0.1029	+10.6
235.66	5.4351E+5	4.5354	0.1082	+11.9
235.86	5.4401E+5	4.5354	0.1127	+19.0
236.06	5.4451E+5	4.5382	0.0946	+11.4
236.26	5.4501E+5	4.5326	0.0989	+10.9
236.46	5.4551E+5	4.5368	0.0962	+14.5
236.66	5.4601E+5	4.5396	Inf	-336.6
236.84	5.4651E+5	4.5311	0.1013	+6.6
237.04	5.4701E+5	4.5410	0.0966	+10.8
237.26	5.4751E+5	4.5368	0.0996	+12.0
237.48	5.4801E+5	4.5382	0.1003	+14.2
237.68	5.4851E+5	4.5396	0.1012	+10.8
237.87	5.4901E+5	4.5396	0.1019	+14.8
238.06	5.4951E+5	4.5340	0.0990	+11.4
238.26	5.5001E+5	4.5425	0.0936	+6.8
238.47	5.5051E+5	4.5340	0.1060	+21.0
238.69	5.5101E+5	4.5425	0.1013	+17.1
238.91	5.5151E+5	4.5368	0.0912	+13.6
239.12	5.5201E+5	4.5368	0.1007	+17.6
239.32	5.5251E+5	4.5382	0.0995	+14.6
239.52	5.5301E+5	4.5410	0.0930	+11.8
239.74	5.5351E+5	4.5425	0.0851	+14.1
239.94	5.5401E+5	4.5326	0.0943	+15.2
240.17	5.5451E+5	4.5368	0.0925	+13.4
240.37	5.5501E+5	4.5368	0.0944	+17.8
240.57	5.5551E+5	4.5410	0.0967	+8.7
240.79	5.5601E+5	4.5311	0.0897	+15.2
241.00	5.5651E+5	4.5439	0.0913	+12.7
241.22	5.5701E+5	4.5311	0.0946	+13.2
241.44	5.5751E+5	4.5368	0.0876	+16.3
241.63	5.5801E+5	4.5368	0.0826	+15.2
241.83	5.5851E+5	4.5481	0.0857	+12.7
242.05	5.5901E+5	4.5340	0.0846	+9.9
242.27	5.5951E+5	4.5382	0.0898	+16.0
242.47	5.6001E+5	4.5368	0.0924	+18.3
242.66	5.6051E+5	4.5382	0.0896	+9.0
242.87	5.6101E+5	4.5467	0.0928	+12.4
243.06	5.6151E+5	4.5340	0.0948	+10.5
243.28	5.6201E+5	4.5425	0.1019	+0.3
243.50	5.6251E+5	4.5439	0.0927	+12.7
243.70	5.6301E+5	4.5326	0.0930	+11.2
243.90	5.6351E+5	4.5439	0.0943	+6.6
244.11	5.6401E+5	4.5410	0.0846	+11.7
244.31	5.6451E+5	4.5368	0.0889	+10.1
244.53	5.6501E+5	4.5326	0.0891	+14.9
244.71	5.6551E+5	4.5354	0.0857	+14.0
244.89	5.6601E+5	4.5311	0.0750	+11.7
245.08	5.6651E+5	4.5326	0.0831	+15.2
245.28	5.6701E+5	4.5311	0.0903	+17.4
245.47	5.6751E+5	4.5326	0.0928	+19.1
245.66	5.6801E+5	4.5396	0.0778	+11.5
245.86	5.6851E+5	4.5382	0.0909	+3.1
246.06	5.6901E+5	4.5354	0.0802	+12.2
246.24	5.6951E+5	4.5410	0.0859	+9.4
246.46	5.7001E+5	4.5425	0.1002	+22.1
246.66	5.7051E+5	4.5382	0.0905	+8.3
246.87	5.7101E+5	4.5368	0.0829	+18.2
247.07	5.7151E+5	4.5326	0.0796	+8.0
247.27	5.7201E+5	4.5368	0.0869	+6.2
247.47	5.7251E+5	4.5396	0.0789	+11.8
247.67	5.7301E+5	4.5396	0.0827	+9.0
247.87	5.7351E+5	4.5368	0.0811	+11.1
248.07	5.7401E+5	4.5297	0.0835	+6.3
248.27	5.7451E+5	4.5410	0.0806	+9.5
248.49	5.7501E+5	4.5311	0.0733	+11.7
248.69	5.7551E+5	4.5382	0.0816	+13.3
248.88	5.7601E+5	4.5354	0.0785	+10.2
249.09	5.7651E+5	4.5410	0.0778	+15.2
249.30	5.7701E+5	4.5354	0.0788	+9.0
249.52	5.7751E+5	4.5368	0.0739	+10.3
249.72	5.7801E+5	4.5410	0.0807	+5.8
249.93	5.7851E+5	4.5382	Inf	+369.4
250.13	5.7901E+5	4.5340	0.0801	+13.4
250.31	5.7951E+5	4.5368	0.0823	+8.7
250.52	5.8001E+5	4.5354	0.0744	+11.9
250.70	5.8051E+5	4.5382	0.0761	+15.3
250.90	5.8101E+5	4.5382	0.0856	+15.5
251.10	5.8151E+5	4.5311	0.0710	-336.2
251.30	5.8201E+5	4.5311	0.0771	+11.7
251.50	5.8251E+5	4.5269	0.0840	+4.1
251.70	5.8301E+5	4.5326	0.0785	+11.4
251.90	5.8351E+5	4.5340	0.0822	+17.7
252.10	5.8401E+5	4.5354	0.0791	+9.7
252.28	5.8451E+5	4.5354	0.0810	+1.5
252.48	5.8501E+5	4.5340	0.0908	+17.7
252.68	5.8551E+5	4.5340	0.0804	+16.3
252.88	5.8601E+5	4.5340	0.0746	+11.8
253.08	5.8651E+5	4.5368	Inf	+362.5
253.26	5.8701E+5	4.5311	0.0732	+11.1
253.46	5.8751E+5	4.5326	0.0774	+11.1
253.66	5.8801E+5	4.5354	0.0831	+1.3
253.84	5.8851E+5	4.5354	0.0803	+8.2
254.04	5.8901E+5	4.5326	0.0775	+15.6
254.24	5.8951E+5	4.5368	0.0760	+13.8
254.42	5.9001E+5	4.5340	0.0765	+11.2
254.59	5.9051E+5	4.5340	0.0782	+13.6
254.77	5.9101E+5	4.5396	0.0768	+6.6
254.97	5.9151E+5	4.5311	0.0747	+13.6
255.17	5.9201E+5	4.5340	0.0788	+12.5
255.35	5.9251E+5	4.5382	0.0749	+15.4
255.55	5.9301E+5	4.5368	0.0756	+6.9
255.74	5.9351E+5	4.5396	0.0723	-345.7
255.94	5.9401E+5	4.5340	0.0724	+11.0
256.12	5.9451E+5	4.5396	Inf	-351.7
256.30	5.9501E+5	4.5354	0.0785	+9.4
256.49	5.9551E+5	4.5368	0.0744	+7.6
256.68	5.9601E+5	4.5396	0.0714	+9.7
256.88	5.9651E+5	4.5340	0.0811	+17.0
257.08	5.9701E+5	4.5340	Inf	+371.0
257.27	5.9751E+5	4.5396	0.0782	+5.9
257.47	5.9801E+5	4.5396	0.0864	+15.3
257.67	5.9851E+5	4.5340	0.0745	+16.3
257.85	5.9901E+5	4.5340	0.0705	+9.3
258.05	5.9951E+5	4.5382	0.0729	+6.4
258.25	6.0001E+5	4.5340	0.0748	+6.5
258.45	6.0051E+5	4.5410	0.0724	+13.7
258.66	6.0101E+5	4.5326	0.0742	+11.2
258.86	6.0151E+5	4.5311	0.0772	+11.7
259.03	6.0201E+5	4.5382	0.0716	+10.3
259.21	6.0251E+5	4.5340	0.0685	+10.8
259.39	6.0301E+5	4.5269	0.0687	+11.7
259.58	6.0351E+5	4.5269	0.0744	+6.2
259.76	6.0401E+5	4.5297	Inf	-351.3
259.91	6.0451E+5	4.5354	0.0712	+15.3
260.09	6.0501E+5	4.5326	0.0738	+10.7
260.29	6.0551E+5	4.5368	0.0666	+10.1
260.49	6.0601E+5	4.5382	0.0732	+11.1
260.69	6.0651E+5	4.5326	0.0706	+11.1
260.89	6.0701E+5	4.5326	0.0822	+17.3
261.08	6.0751E+5	4.5311	0.0711	+15.2
261.27	6.0801E+5	4.5340	0.0728	+3.8
261.48	6.0851E+5	4.5311	0.0829	+18.1
261.68	6.0901E+5	4.5396	0.0676	+13.1
261.87	6.0951E+5	4.5396	0.0747	+8.7
262.06	6.1001E+5	4.5354	0.0710	+8.9
262.26	6.1051E+5	4.5396	0.0709	+15.5
262.44	6.1101E+5	4.5340	0.0797	+9.0
262.64	6.1151E+5	4.5326	0.0651	-337.9
262.84	6.1201E+5	4.5326	0.0726	+9.7
263.02	6.1251E+5	4.5311	0.0681	+6.9
263.22	6.1301E+5	4.5340	0.0667	+11.4
263.42	6.1351E+5	4.5297	0.0667	+9.6
263.61	6.1401E+5	4.5311	0.0667	+9.1
263.79	6.1451E+5	4.5297	0.0686	+0.7
263.97	6.1501E+5	4.5326	0.0750	+0.1
264.17	6.1551E+5	4.5311	0.0697	+10.4
264.37	6.1601E+5	4.5269	0.0661	+8.3
264.57	6.1651E+5	4.5283	0.0676	+11.1
264.77	6.1701E+5	4.5283	0.0654	+9.6
264.95	6.1751E+5	4.5311	0.0678	+10.2
265.15	6.1801E+5	4.5297	0.0689	+17.5
265.35	6.1851E+5	4.5269	0.0674	+9.2
265.55	6.1901E+5	4.5297	0.0614	-340.2
265.73	6.1951E+5	4.5340	Inf	-354.4
265.92	6.2001E+5	4.5326	0.0742	+5.2
266.12	6.2051E+5	4.5340	0.0711	+16.6
266.31	6.2101E+5	4.5326	0.0644	+11.0
266.51	6.2151E+5	4.5311	0.0701	+11.3
266.70	6.2201E+5	4.5340	0.0749	+17.6
266.90	6.2251E+5	4.5354	0.0650	+11.9
267.10	6.2301E+5	4.5297	0.0692	+11.0
267.30	6.2351E+5	4.5311	0.0680	+15.3
267.48	6.2401E+5	4.5382	0.0664	+3.8
267.68	6.2451E+5	4.5255	0.0640	+9.1
267.88	6.2501E+5	4.5311	0.0650	+17.9
268.08	6.2551E+5	4.5354	0.0679	+13.3
268.28	6.2601E+5	4.5297	0.0675	+5.9
268.44	6.2651E+5	4.5326	0.0621	+6.6
268.64	6.2701E+5	4.5326	0.0671	+9.5
268.84	6.2751E+5	4.5326	0.0720	+18.5
269.04	6.2801E+5	4.5326	0.0603	-340.2
269.23	6.2851E+5	4.5311	0.0631	+8.9
269.43	6.2901E+5	4.5326	0.0692	+16.7
269.62	6.2951E+5	4.5241	0.0689	+4.9
269.81	6.3001E+5	4.5326	0.0689	+6.6
269.97	6.3051E+5	4.5269	Inf	+369.8
270.16	6.3101E+5	4.5269	0.0657	+4.2
270.36	6.3151E+5	4.5311	0.0649	+8.7
270.54	6.3201E+5	4.5283	0.0635	+6.6
270.72	6.3251E+5	4.5297	Inf	-345.8
270.90	6.3301E+5	4.5283	Inf	-350.7
271.09	6.3351E+5	4.5311	Inf	-352.7
271.27	6.3401E+5	4.5283	Inf	-359.2
271.44	6.3451E+5	4.5297	0.0660	+9.2
271.64	6.3501E+5	4.5241	0.0761	+10.8
271.84	6.3551E+5	4.5227	Inf	+364.6
272.02	6.3601E+5	4.5311	Inf	-348.1
272.19	6.3651E+5	4.5311	0.0629	+8.7
272.39	6.3701E+5	4.5368	0.0579	-336.6
272.58	6.3751E+5	4.5255	Inf	+371.4
272.77	6.3801E+5	4.5255	0.0694	+14.9
272.95	6.3851E+5	4.5297	0.0618	+9.8
273.15	6.3901E+5	4.5396	0.0611	-347.0
273.35	6.3951E+5	4.5283	0.0649	+15.6
273.55	6.4001E+5	4.5297	0.0631	+4.4
273.73	6.4051E+5	4.5269	0.0634	+14.4
273.92	6.4101E+5	4.5212	0.0766	-2.0
274.12	6.4151E+5	4.5227	0.0597	+5.9
274.30	6.4201E+5	4.5283	0.0586	-347.1
274.50	6.4251E+5	4.5297	0.0610	+8.6
274.70	6.4301E+5	4.5241	0.0611	+8.9
274.88	6.4351E+5	4.5311	0.0651	+9.7
275.06	6.4401E+5	4.5269	0.0674	-2.3
275.26	6.4451E+5	4.5311	0.0687	+8.6
275.46	6.4501E+5	4.5283	0.0633	+7.4
275.66	6.4551E+5	4.5283	0.0636	+11.5
275.83	6.4601E+5	4.5326	0.0641	+8.0
276.01	6.4651E+5	4.5297	0.0632	+6.5
276.19	6.4701E+5	4.5227	0.0693	+5.2
276.37	6.4751E+5	4.5283	Inf	-347.8
276.54	6.4801E+5	4.5283	0.0612	+6.6
276.74	6.4851E+5	4.5269	Inf	+9.1
276.92	6.4901E+5	4.5326	Inf	+355.4
277.09	6.4951E+5	4.5283	0.0682	+12.7
277.29	6.5001E+5	4.5227	0.0652	+9.6
277.49	6.5051E+5	4.5241	0.0645	+7.5
277.66	6.5101E+5	4.5283	Inf	+365.3
277.84	6.5151E+5	4.5241	0.0695	+12.8
278.04	6.5201E+5	4.5340	0.0559	-342.3
278.22	6.5251E+5	4.5241	0.0607	+10.0
278.42	6.5301E+5	4.5255	0.0707	+9.7
278.62	6.5351E+5	4.5354	0.0620	+2.5
278.82	6.5401E+5	4.5269	Inf	-356.6
278.99	6.5451E+5	4.5283	Inf	+360.4
279.17	6.5501E+5	4.5283	0.0674	+8.9
279.37	6.5551E+5	4.5227	0.0593	+6.0
279.55	6.5601E+5	4.5269	0.0694	+9.3
279.75	6.5651E+5	4.5311	0.0599	+5.9
279.95	6.5701E+5	4.5241	Inf	+369.7
280.12	6.5751E+5	4.5311	0.0600	+7.3
280.30	6.5801E+5	4.5283	0.0608	+16.6
280.50	6.5851E+5	4.5227	0.0627	+4.2
280.70	6.5901E+5	4.5198	0.0603	+13.5
280.88	6.5951E+5	4.5241	Inf	-351.4
281.07	6.6001E+5	4.5255	0.0585	+1.1
281.27	6.6051E+5	4.5283	0.0606	+2.2
281.45	6.6101E+5	4.5255	0.0568	+7.6
281.65	6.6151E+5	4.5241	Inf	-355.4
281.83	6.6201E+5	4.5241	0.0604	+11.3
282.01	6.6251E+5	4.5227	0.0570	+8.2
282.22	6.6301E+5	4.5184	0.0599	+9.9
282.41	6.6351E+5	4.5311	0.0563	+10.7
282.60	6.6401E+5	4.5255	0.0568	+12.8
282.78	6.6451E+5	4.5212	0.0551	-344.1
282.98	6.6501E+5	4.5212	0.0574	+5.8
283.16	6.6551E+5	4.5283	Inf	+361.1
283.35	6.6601E+5	4.5227	0.0547	-342.5
283.55	6.6651E+5	4.5241	0.0743	+22.6
283.73	6.6701E+5	4.5283	0.0567	+7.9
283.93	6.6751E+5	4.5255	Inf	+4.2
284.11	6.6801E+5	4.5269	0.0585	+7.6
284.29	6.6851E+5	4.5212	0.0546	-349.0
284.49	6.6901E+5	4.5212	0.0646	+9.0
284.69	6.6951E+5	4.5212	0.0585	+3.8
284.87	6.7001E+5	4.5311	0.0656	+13.5
285.07	6.7051E+5	4.5170	Inf	-350.9
285.26	6.7101E+5	4.5283	Inf	-0.4
285.42	6.7151E+5	4.5311	Inf	+372.2
285.61	6.7201E+5	4.5269	Inf	-0.4
285.79	6.7251E+5	4.5297	0.0570	+18.2
285.97	6.7301E+5	4.5212	0.0568	+7.5
286.16	6.7351E+5	4.5227	0.0584	+8.7
286.36	6.7401E+5	4.5297	Inf	-349.1
286.52	6.7451E+5	4.5241	Inf	-350.0
286.71	6.7501E+5	4.5255	0.0574	+4.7
286.89	6.7551E+5	4.5297	0.0565	+11.5
287.07	6.7601E+5	4.5311	0.0575	+7.6
287.27	6.7651E+5	4.5241	0.0564	-348.0
287.47	6.7701E+5	4.5170	0.0581	+4.2
287.65	6.7751E+5	4.5255	0.0566	+9.3
287.85	6.7801E+5	4.5198	Inf	+5.5
288.04	6.7851E+5	4.5340	0.0566	-2.0
288.20	6.7901E+5	4.5311	0.0572	+1.7
288.38	6.7951E+5	4.5340	Inf	+15.1
288.57	6.8001E+5	4.5212	0.0677	-4.8
288.75	6.8051E+5	4.5269	0.0653	+20.4
288.95	6.8101E+5	4.5198	Inf	+369.0
289.13	6.8151E+5	4.5255	0.0649	+16.0
289.30	6.8201E+5	4.5297	Inf	-345.1
289.48	6.8251E+5	4.5283	0.0548	-350.2
289.68	6.8301E+5	4.5227	0.0522	-347.5
289.87	6.8351E+5	4.5227	0.0629	-6.1
290.06	6.8401E+5	4.5297	0.0556	+12.2
290.25	6.8451E+5	4.5311	0.0534	-341.3
290.45	6.8501E+5	4.5311	Inf	+9.3
290.63	6.8551E+5	4.5269	Inf	+363.8
290.80	6.8601E+5	4.5227	Inf	+9.7
290.98	6.8651E+5	4.5297	0.0545	-352.1
291.18	6.8701E+5	4.5255	0.0560	+12.4
291.36	6.8751E+5	4.5255	0.0513	-340.4
291.56	6.8801E+5	4.5227	0.0546	+7.7
291.76	6.8851E+5	4.5241	Inf	+7.4
291.93	6.8901E+5	4.5255	0.0535	-349.0
292.13	6.8951E+5	4.5269	Inf	+5.3
292.29	6.9001E+5	4.5311	0.0582	+0.4
292.49	6.9051E+5	4.5297	0.0644	+17.7
292.69	6.9101E+5	4.5283	0.0606	+4.1
292.88	6.9151E+5	4.5198	0.0553	+10.8
293.07	6.9201E+5	4.5283	0.0592	+10.1
293.27	6.9251E+5	4.5241	0.0540	-355.2
293.46	6.9301E+5	4.5255	0.0517	-352.8
293.66	6.9351E+5	4.5255	0.0541	+15.2
293.84	6.9401E+5	4.5269	0.0552	+1.4
294.04	6.9451E+5	4.5212	0.0549	+9.3
294.22	6.9501E+5	4.5184	Inf	+14.2
294.39	6.9551E+5	4.5297	0.0561	+11.0
294.59	6.9601E+5	4.5297	0.0591	+0.6
294.79	6.9651E+5	4.5269	0.0535	+9.6
294.97	6.9701E+5	4.5311	0.0522	-342.7
295.17	6.9751E+5	4.5170	0.0512	-347.1
295.35	6.9801E+5	4.5184	0.0562	+7.2
295.55	6.9851E+5	4.5255	0.0542	+9.1
295.76	6.9901E+5	4.5255	0.0519	-344.7
295.94	6.9951E+5	4.5241	0.0532	-345.8
296.13	7.0001E+5	4.5227	Inf	-357.5
296.30	7.0051E+5	4.5269	0.0640	+20.7
296.50	7.0101E+5	4.5227	Inf	+12.2
296.68	7.0151E+5	4.5283	0.0553	+5.2
296.87	7.0201E+5	4.5255	Inf	+3.9
297.05	7.0251E+5	4.5227	0.0537	+9.7
297.25	7.0301E+5	4.5255	0.0532	+7.8
297.42	7.0351E+5	4.5227	0.0532	+6.5
297.60	7.0401E+5	4.5283	Inf	+363.0
297.76	7.0451E+5	4.5241	0.0542	+0.3
297.95	7.0501E+5	4.5255	0.0523	+9.3
298.15	7.0551E+5	4.5297	Inf	-352.7
298.31	7.0601E+5	4.5283	0.0547	+3.8
298.51	7.0651E+5	4.5255	0.0529	-1.7
298.70	7.0701E+5	4.5241	0.0622	+15.7
298.89	7.0751E+5	4.5241	Inf	+11.7
299.08	7.0801E+5	4.5241	Inf	+19.7
299.24	7.0851E+5	4.5241	0.0528	-354.4
299.44	7.0901E+5	4.5212	0.0525	+10.1
299.61	7.0951E+5	4.5283	0.0534	+10.5
299.81	7.1001E+5	4.5241	0.0525	+8.3
300.01	7.1051E+5	4.5269	0.0575	+3.1
300.19	7.1101E+5	4.5297	0.0531	+12.8
300.39	7.1151E+5	4.5241	0.0537	+6.6
300.56	7.1201E+5	4.5283	0.0541	+9.0
300.74	7.1251E+5	4.5227	Inf	+363.4
300.91	7.1301E+5	4.5283	0.0521	+8.2
301.11	7.1351E+5	4.5269	0.0533	+7.7
301.31	7.1401E+5	4.5283	0.0545	+2.7
301.49	7.1451E+5	4.5269	0.0492	-348.2
301.69	7.1501E+5	4.5241	0.0513	+4.8
301.87	7.1551E+5	4.5241	0.0512	+9.6
302.06	7.1601E+5	4.5241	0.0586	-1.1
302.25	7.1651E+5	4.5227	0.0570	+18.5
302.44	7.1701E+5	4.5198	0.0528	+4.2
302.64	7.1751E+5	4.5241	0.0494	-343.4
302.82	7.1801E+5	4.5255	0.0539	+9.4
303.02	7.1851E+5	4.5269	0.0495	-345.8
303.22	7.1901E+5	4.5283	Inf	+2.0
303.39	7.1951E+5	4.5311	0.0519	-355.2
303.59	7.2001E+5	4.5326	0.0503	+3.0
303.77	7.2051E+5	4.5184	0.0534	+11.3
303.97	7.2101E+5	4.5241	Inf	+371.2
304.13	7.2151E+5	4.5255	0.0495	-346.2
304.33	7.2201E+5	4.5241	0.0513	+6.5
304.53	7.2251E+5	4.5241	0.0522	+8.5
304.72	7.2301E+5	4.5283	0.0494	-344.8
304.92	7.2351E+5	4.5198	0.0528	+7.6
305.10	7.2401E+5	4.5212	0.0495	-344.6
305.30	7.2451E+5	4.5227	0.0502	-342.9
305.48	7.2501E+5	4.5269	0.0525	-357.9
305.68	7.2551E+5	4.5227	0.0513	+5.9
305.88	7.2601E+5	4.5227	0.0509	-354.3
306.05	7.2651E+5	4.5198	0.0497	+3.2
306.25	7.2701E+5	4.5283	0.0505	-348.5
306.43	7.2751E+5	4.5212	0.0515	+353.0
306.61	7.2801E+5	4.5283	0.0517	+8.3
306.80	7.2851E+5	4.5198	0.0538	-2.2
307.00	7.2901E+5	4.5255	Inf	-361.3
307.18	7.2951E+5	4.5227	Inf	+8.9
307.35	7.3001E+5	4.5184	0.0499	+14.4
307.54	7.3051E+5	4.5184	0.0515	+8.3
307.73	7.3101E+5	4.5241	0.0576	+12.2
307.93	7.3151E+5	4.5212	Inf	+0.6
308.09	7.3201E+5	4.5241	0.0503	+355.9
308.31	7.3251E+5	4.5255	Inf	-2.0
308.48	7.3301E+5	4.5227	0.0496	+10.0
308.68	7.3351E+5	4.5227	0.0489	-346.7
308.86	7.3401E+5	4.5198	0.0511	+1.6
309.04	7.3451E+5	4.5297	Inf	+6.6
309.22	7.3501E+5	4.5198	Inf	+8.9
309.39	7.3551E+5	4.5212	0.0483	+2.9
309.59	7.3601E+5	4.5255	Inf	+10.4
309.76	7.3651E+5	4.5241	0.0499	-349.8
309.96	7.3701E+5	4.5241	0.0494	-349.5
310.12	7.3751E+5	4.5227	Inf	+0.5
310.31	7.3801E+5	4.5212	0.0550	+6.0
310.50	7.3851E+5	4.5255	0.0491	-1.6
310.69	7.3901E+5	4.5283	0.0570	+11.3
310.89	7.3951E+5	4.5255	0.0487	-345.8
311.07	7.4001E+5	4.5255	Inf	+10.0
311.25	7.4051E+5	4.5269	0.0504	+13.2
311.42	7.4101E+5	4.5255	0.0519	+349.7
311.62	7.4151E+5	4.5227	0.0504	+14.4
311.79	7.4201E+5	4.5241	0.0508	+5.9
311.97	7.4251E+5	4.5170	0.0492	-354.0
312.15	7.4301E+5	4.5326	0.0495	+9.0
312.33	7.4351E+5	4.5170	Inf	-0.1
312.52	7.4401E+5	4.5241	Inf	+2.8
312.68	7.4451E+5	4.5227	0.0500	+6.0
312.87	7.4501E+5	4.5212	0.0509	+356.4
313.05	7.4551E+5	4.5227	0.0490	+355.0
313.25	7.4601E+5	4.5241	Inf	+2.1
313.41	7.4651E+5	4.5170	Inf	+5.1
313.60	7.4701E+5	4.5269	0.0502	+18.7
313.78	7.4751E+5	4.5198	0.0496	+8.2
313.98	7.4801E+5	4.5255	0.0495	+8.2
314.15	7.4851E+5	4.5227	0.0487	-2.3
314.35	7.4901E+5	4.5227	0.0482	+8.4
314.51	7.4951E+5	4.5255	0.0503	+3.6
314.71	7.5001E+5	4.5255	0.0544	+12.4
314.91	7.5051E+5	4.5241	0.0489	+14.5
315.10	7.5101E+5	4.5297	0.0491	-351.3
315.28	7.5151E+5	4.5269	0.0500	-350.5
315.43	7.5201E+5	4.5198	0.0499	+6.8
315.59	7.5251E+5	4.5255	0.0475	-344.4
315.76	7.5301E+5	4.5255	0.0484	+4.6
315.94	7.5351E+5	4.5212	0.0489	+11.0
316.13	7.5401E+5	4.5269	0.0505	+4.8
316.32	7.5451E+5	4.5241	Inf	+363.7
316.49	7.5501E+5	4.5283	0.0496	-357.0
316.69	7.5551E+5	4.5198	0.0581	-19.2
316.87	7.5601E+5	4.5269	0.0487	+10.1
317.07	7.5651E+5	4.5269	Inf	+7.5
317.24	7.5701E+5	4.5198	0.0500	+10.6
317.44	7.5751E+5	4.5184	0.0477	-347.5
317.62	7.5801E+5	4.5227	0.0497	+3.7
317.82	7.5851E+5	4.5212	0.0504	+353.0
318.00	7.5901E+5	4.5198	0.0481	-1.5
318.20	7.5951E+5	4.5184	0.0492	+8.3
318.40	7.6001E+5	4.5212	0.0488	+6.8
318.59	7.6051E+5	4.5184	0.0481	+8.5
318.77	7.6101E+5	4.5227	0.0470	-351.8
318.95	7.6151E+5	4.5170	0.0485	+3.6
319.15	7.6201E+5	4.5156	0.0477	+5.1
319.32	7.6251E+5	4.5170	Inf	+5.6
319.50	7.6301E+5	4.5283	Inf	-5.5
319.67	7.6351E+5	4.5198	Inf	+9.6
319.85	7.6401E+5	4.5297	0.0470	-351.6
320.03	7.6451E+5	4.5184	0.0483	-0.3
320.23	7.6501E+5	4.5142	0.0494	+11.8
320.42	7.6551E+5	4.5142	Inf	+4.4
320.60	7.6601E+5	4.5212	0.0534	+4.8
320.78	7.6651E+5	4.5156	0.0472	-356.0
320.98	7.6701E+5	4.5198	Inf	+5.4
321.15	7.6751E+5	4.5198	0.0463	+353.5
321.33	7.6801E+5	4.5142	0.0486	+356.4
321.51	7.6851E+5	4.5241	0.0480	+353.5
321.70	7.6901E+5	4.5227	0.0526	+5.4
321.88	7.6951E+5	4.5255	Inf	+3.3
322.06	7.7001E+5	4.5184	0.0466	+10.2
322.25	7.7051E+5	4.5241	0.0481	-359.7
322.45	7.7101E+5	4.5227	0.0470	+352.6
322.63	7.7151E+5	4.5198	0.0441	-349.2
322.83	7.7201E+5	4.5198	0.0543	-10.6
323.01	7.7251E+5	4.5283	Inf	+12.0
323.19	7.7301E+5	4.5212	Inf	-5.0
323.36	7.7351E+5	4.5212	Inf	+5.7
323.54	7.7401E+5	4.5184	0.0478	+1.7
323.73	7.7451E+5	4.5156	0.0492	+357.5
323.93	7.7501E+5	4.5198	0.0522	-0.1
324.11	7.7551E+5	4.5198	0.0475	-1.5
324.31	7.7601E+5	4.5184	Inf	+Inf
324.47	7.7651E+5	4.5184	Inf	+3.8
324.66	7.7701E+5	4.5241	Inf	+0.3
324.82	7.7751E+5	4.5269	0.0480	+4.6
325.01	7.7801E+5	4.5184	0.0466	-0.3
325.19	7.7851E+5	4.5269	0.0472	+8.3
325.37	7.7901E+5	4.5198	0.0466	-348.2
325.52	7.7951E+5	4.5170	0.0467	-355.4
325.70	7.8001E+5	4.5128	0.0531	+4.8
325.89	7.8051E+5	4.5184	0.0475	+358.5
326.09	7.8101E+5	4.5198	0.0461	-350.7
326.27	7.8151E+5	4.5212	0.0550	-20.7
326.47	7.8201E+5	4.5227	0.0470	-348.6
326.65	7.8251E+5	4.5198	Inf	+9.6
326.84	7.8301E+5	4.5241	0.0459	-348.1
327.02	7.8351E+5	4.5170	Inf	+6.5
327.20	7.8401E+5	4.5255	Inf	+16.0
327.37	7.8451E+5	4.5212	0.0454	-349.0
327.55	7.8501E+5	4.5198	0.0555	-20.7
327.73	7.8551E+5	4.5227	Inf	+9.2
327.92	7.8601E+5	4.5184	0.0458	-349.8
328.10	7.8651E+5	4.5212	0.0471	-357.9
328.30	7.8701E+5	4.5227	0.0464	-345.2
328.47	7.8751E+5	4.5142	0.0455	+2.5
328.67	7.8801E+5	4.5156	0.0561	-19.7
328.85	7.8851E+5	4.5227	0.0464	-354.7
329.05	7.8901E+5	4.5184	0.0480	+1.8
329.23	7.8951E+5	4.5227	0.0460	-357.2
329.43	7.9001E+5	4.5227	Inf	-9.7
329.60	7.9051E+5	4.5156	0.0605	-43.6
329.78	7.9101E+5	4.5269	0.0478	+358.9
329.98	7.9151E+5	4.5170	Inf	+366.3
330.15	7.9201E+5	4.5198	0.0447	+4.7
330.35	7.9251E+5	4.5170	0.0461	+13.4
330.53	7.9301E+5	4.5128	0.0457	+4.3
330.73	7.9351E+5	4.5198	0.0465	-2.0
330.91	7.9401E+5	4.5184	0.0464	+13.7
331.09	7.9451E+5	4.5212	Inf	+11.0
331.26	7.9501E+5	4.5227	0.0464	+1.7
331.44	7.9551E+5	4.5128	Inf	+2.7
331.61	7.9601E+5	4.5170	0.0459	-350.5
331.81	7.9651E+5	4.5212	0.0470	+5.0
331.99	7.9701E+5	4.5128	0.0453	-355.0
332.19	7.9751E+5	4.5212	0.0458	+4.8
332.36	7.9801E+5	4.5184	0.0464	+0.4
332.56	7.9851E+5	4.5269	0.0585	-23.3
332.74	7.9901E+5	4.5184	0.0529	-10.0
332.94	7.9951E+5	4.5170	Inf	+2.4
333.11	8.0001E+5	4.5142	Inf	-3.7
333.27	8.0051E+5	4.5184	0.0463	+6.5
333.47	8.0101E+5	4.5198	0.0459	-0.7
333.65	8.0151E+5	4.5198	0.0588	-40.7
333.86	8.0201E+5	4.5156	0.0478	-358.4
334.04	8.0251E+5	4.5184	0.0468	-350.1
334.24	8.0301E+5	4.5198	0.0458	-351.5
334.42	8.0351E+5	4.5227	0.0450	+8.1
334.60	8.0401E+5	4.5269	0.0466	+358.8
334.79	8.0451E+5	4.5198	Inf	-1.2
334.97	8.0501E+5	4.5227	0.0460	+13.0
335.13	8.0551E+5	4.5170	0.0463	-354.6
335.32	8.0601E+5	4.5184	0.0448	+357.8
335.50	8.0651E+5	4.5212	0.0467	+5.4
335.70	8.0701E+5	4.5170	Inf	+2.8
335.87	8.0751E+5	4.5198	0.0463	+6.5
336.03	8.0801E+5	4.5198	0.0451	-352.4
336.23	8.0851E+5	4.5212	Inf	+5.2
336.40	8.0901E+5	4.5142	0.0475	-357.4
336.58	8.0951E+5	4.5113	0.0451	+358.8
336.78	8.1001E+5	4.5191	Inf	-0.4
336.98	8.1051E+5	4.5198	Inf	+7.7
337.15	8.1101E+5	4.5227	0.0451	-349.2
337.33	8.1151E+5	4.5212	0.0456	-352.7
337.50	8.1201E+5	4.5184	Inf	-9.1
337.68	8.1251E+5	4.5184	Inf	+6.3
337.85	8.1301E+5	4.5099	0.0458	+7.2
338.03	8.1351E+5	4.5145	0.0501	+3.5
338.25	8.1401E+5	4.5156	0.0449	+355.9
338.43	8.1451E+5	4.5142	Inf	+2.3
338.61	8.1501E+5	4.5198	0.0443	-353.5
338.79	8.1551E+5	4.5212	0.0455	-0.4
338.99	8.1601E+5	4.5184	0.0461	-356.2
339.18	8.1651E+5	4.5128	0.0457	+358.2
339.38	8.1701E+5	4.5184	Inf	-10.9
339.54	8.1751E+5	4.5170	0.0457	-351.6
339.71	8.1801E+5	4.5212	0.0465	+8.4
339.89	8.1851E+5	4.5128	Inf	+4.4
340.06	8.1901E+5	4.5142	0.0559	-17.6
340.26	8.1951E+5	4.5184	0.0448	+0.6
340.44	8.2001E+5	4.5113	0.0451	-355.6
340.64	8.2051E+5	4.5163	0.0452	+356.0
340.82	8.2101E+5	4.5184	0.0459	+9.4
341.01	8.2151E+5	4.5241	0.0515	-16.3
341.19	8.2201E+5	4.5198	0.0462	+2.4
341.39	8.2251E+5	4.5212	0.0455	+5.2
341.57	8.2301E+5	4.5170	0.0446	-0.7
341.72	8.2351E+5	4.5184	0.0446	-356.9
341.90	8.2401E+5	4.5156	Inf	+4.3
342.07	8.2451E+5	4.5198	0.0458	-352.9
342.25	8.2501E+5	4.5128	0.0448	-358.1
342.42	8.2551E+5	4.5156	Inf	+351.5
342.60	8.2601E+5	4.5113	0.0482	+11.6
342.80	8.2651E+5	4.5147	Inf	+0.6
342.99	8.2701E+5	4.5128	0.0438	+3.7
343.19	8.2751E+5	4.5156	Inf	+6.3
343.35	8.2801E+5	4.5184	0.0493	+6.3
343.55	8.2851E+5	4.5156	0.0457	+1.0
343.73	8.2901E+5	4.5198	Inf	+8.4
343.92	8.2951E+5	4.5184	0.0451	-3.7
344.08	8.3001E+5	4.5283	Inf	+4.2
344.27	8.3051E+5	4.5198	0.0446	-7.5
344.43	8.3101E+5	4.5212	0.0454	+2.7
344.60	8.3151E+5	4.5099	Inf	+3.5
344.80	8.3201E+5	4.5191	Inf	-3.6
344.96	8.3251E+5	4.5128	0.0546	-30.0
345.17	8.3301E+5	4.5184	0.0450	-353.7
345.35	8.3351E+5	4.5227	Inf	+7.0
345.53	8.3401E+5	4.5128	0.0437	+357.3
345.71	8.3451E+5	4.5184	Inf	+6.8
345.88	8.3501E+5	4.5184	Inf	+3.5
346.06	8.3551E+5	4.5099	0.0488	+11.7
346.26	8.3601E+5	4.5153	0.0487	+351.4
346.46	8.3651E+5	4.5113	0.0442	-357.7
346.66	8.3701E+5	4.5173	0.0462	+359.8
346.88	8.3751E+5	4.5184	0.0447	-0.3
347.06	8.3801E+5	4.5113	Inf	-0.8
347.24	8.3851E+5	4.5119	0.0447	+353.5
347.44	8.3901E+5	4.5198	Inf	+5.9
347.61	8.3951E+5	4.5184	Inf	-8.2
347.79	8.4001E+5	4.5184	0.0438	-3.0
347.96	8.4051E+5	4.5113	0.0448	+355.5
348.17	8.4101E+5	4.5122	0.0436	+1.8
348.37	8.4151E+5	4.5113	0.0436	-3.0
348.56	8.4201E+5	4.5133	0.0438	-352.1
348.75	8.4251E+5	4.5170	Inf	+4.1
348.92	8.4301E+5	4.5212	Inf	+2.7
349.11	8.4351E+5	4.5113	0.0445	-2.0
349.29	8.4401E+5	4.5161	0.0457	-346.0
349.50	8.4451E+5	4.5156	0.0443	+0.3
349.69	8.4501E+5	4.5057	0.0435	-351.8
349.87	8.4551E+5	4.5218	0.0440	-355.7
350.07	8.4601E+5	4.5142	0.0458	-357.7
350.25	8.4651E+5	4.5184	0.0437	-348.5
350.45	8.4701E+5	4.5142	0.0440	+355.4
350.62	8.4751E+5	4.5113	0.0435	+1.7
350.80	8.4801E+5	4.5132	0.0434	-356.2
351.00	8.4851E+5	4.5142	0.0489	-12.7
351.18	8.4901E+5	4.5099	0.0433	+4.3
351.40	8.4951E+5	4.5105	Inf	-12.1
351.57	8.5001E+5	4.5157	0.0443	+358.0
351.77	8.5051E+5	4.5085	0.0438	+5.7
351.95	8.5101E+5	4.5207	Inf	+5.8
352.13	8.5151E+5	4.5212	0.0441	-352.6
352.31	8.5201E+5	4.5113	Inf	+0.9
352.50	8.5251E+5	4.5104	0.0438	-353.9
352.68	8.5301E+5	4.5171	0.0434	+1.2
352.86	8.5351E+5	4.5128	Inf	+16.5
353.03	8.5401E+5	4.5198	0.0433	-0.5
353.21	8.5451E+5	4.5128	Inf	+0.5
353.38	8.5501E+5	4.5099	Inf	-24.7
353.58	8.5551E+5	4.5130	0.0532	-25.3
353.78	8.5601E+5	4.5071	Inf	+3.4
353.96	8.5651E+5	4.5094	Inf	-10.3
354.14	8.5701E+5	4.5112	0.0430	-5.1
354.33	8.5751E+5	4.5156	0.0428	-345.8
354.53	8.5801E+5	4.5212	0.0458	+5.7
354.71	8.5851E+5	4.5099	0.0429	+8.8
354.93	8.5901E+5	4.5098	Inf	+319.2
355.09	8.5951E+5	4.5156	0.0451	-360.0
355.29	8.6001E+5	4.5142	0.0432	-2.6
355.49	8.6051E+5	4.5128	Inf	+12.0
355.64	8.6101E+5	4.5128	Inf	+1.9
355.82	8.6151E+5	4.5184	0.0446	-356.6
356.01	8.6201E+5	4.5099	0.0446	+359.5
356.19	8.6251E+5	4.5136	0.0437	+361.4
356.40	8.6301E+5	4.5043	Inf	-5.1
356.59	8.6351E+5	4.5166	0.0457	-356.3
356.81	8.6401E+5	4.5156	0.0431	+1.6
356.99	8.6451E+5	4.5071	0.0422	+5.9
357.17	8.6501E+5	4.5092	0.0429	+3.0
357.35	8.6551E+5	4.5130	Inf	-3.7
357.54	8.6601E+5	4.5099	Inf	+5.8
357.74	8.6651E+5	4.5229	0.0436	+5.9
357.94	8.6701E+5	4.5142	0.0438	+353.8
358.10	8.6751E+5	4.5128	0.0438	+360.0
358.29	8.6801E+5	4.5128	0.0431	+1.7
358.47	8.6851E+5	4.5142	0.0432	+3.3
358.67	8.6901E+5	4.5170	0.0417	-354.2
358.85	8.6951E+5	4.5128	Inf	+6.3
359.02	8.7001E+5	4.5113	Inf	-3.0
359.22	8.7051E+5	4.5119	Inf	-5.8
359.40	8.7101E+5	4.5156	0.0428	-0.6
359.57	8.7151E+5	4.5170	0.0447	+356.7
359.75	8.7201E+5	4.5099	0.0431	-355.2
359.95	8.7251E+5	4.5111	Inf	+30.6
360.13	8.7301E+5	4.5157	0.0415	+4.7
360.33	8.7351E+5	4.5142	0.0427	+3.3
360.53	8.7401E+5	4.5085	Inf	+342.8
360.71	8.7451E+5	4.5129	Inf	+0.6
360.88	8.7501E+5	4.5128	0.0412	+1.7
361.08	8.7551E+5	4.5085	Inf	+351.9
361.26	8.7601E+5	4.5128	Inf	+6.5
361.43	8.7651E+5	4.5085	Inf	+1.9
361.63	8.7701E+5	4.5106	0.0434	-351.5
361.81	8.7751E+5	4.5081	0.0431	-356.7
362.01	8.7801E+5	4.5074	0.0419	-1.7
362.18	8.7851E+5	4.5109	0.0438	+355.7
362.36	8.7901E+5	4.5180	0.0437	+5.1
362.56	8.7951E+5	4.5142	Inf	-4.8
362.73	8.8001E+5	4.5113	Inf	+353.3
362.93	8.8051E+5	4.5133	0.0427	-351.4
363.12	8.8101E+5	4.5142	Inf	+1.9
363.29	8.8151E+5	4.5142	0.0434	+361.4
363.49	8.8201E+5	4.5113	0.0428	+1.7
363.69	8.8251E+5	4.5081	Inf	+355.7
363.87	8.8301E+5	4.5116	0.0423	-0.2
364.04	8.8351E+5	4.5099	Inf	-21.0
364.22	8.8401E+5	4.5154	0.0417	+3.0
364.44	8.8451E+5	4.5113	Inf	-11.5
364.62	8.8501E+5	4.5186	0.0421	-356.0
364.82	8.8551E+5	4.5029	Inf	+349.6
365.02	8.8601E+5	4.5115	0.0423	+7.5
365.20	8.8651E+5	4.5057	0.0443	-357.3
365.42	8.8701E+5	4.5184	0.0431	+360.5
365.62	8.8751E+5	4.5071	Inf	+2.4
365.80	8.8801E+5	4.5112	Inf	+4.2
365.99	8.8851E+5	4.5128	0.0416	+356.0
366.19	8.8901E+5	4.5142	0.0425	+359.2
366.37	8.8951E+5	4.5170	Inf	+5.3
366.55	8.9001E+5	4.5071	0.0412	+3.8
366.75	8.9051E+5	4.5129	0.0415	-3.2
366.95	8.9101E+5	4.5071	Inf	+354.1
367.13	8.9151E+5	4.5147	0.0414	+8.2
367.32	8.9201E+5	4.5085	0.0424	-5.1
367.53	8.9251E+5	4.5087	0.0421	-357.1
367.70	8.9301E+5	4.5020	Inf	+3.1
367.87	8.9351E+5	4.5160	0.0450	-3.9
368.08	8.9401E+5	4.5113	0.0432	-360.3
368.28	8.9451E+5	4.5116	0.0414	-355.8
368.50	8.9501E+5	4.5170	0.0447	-1.3
368.68	8.9551E+5	4.5113	0.0444	-351.1
368.88	8.9601E+5	4.5135	Inf	+2.7
369.08	8.9651E+5	4.5128	0.0430	-358.7
369.26	8.9701E+5	4.5170	Inf	-15.8
369.43	8.9751E+5	4.5142	Inf	+333.5
369.61	8.9801E+5	4.5128	0.0418	-1.8
369.78	8.9851E+5	4.5113	0.0425	+4.2
369.98	8.9901E+5	4.5137	0.0407	+1.0
370.18	8.9951E+5	4.5071	0.0423	-351.4
370.38	9.0001E+5	4.5071	0.0426	-360.5
370.56	9.0051E+5	4.5007	0.0431	+359.5
370.71	9.0101E+5	4.5146	Inf	-14.9
370.89	9.0151E+5	4.5071	0.0434	+360.0
371.11	9.0201E+5	4.5118	0.0413	-3.3
371.31	9.0251E+5	4.5099	0.0436	-357.4
371.52	9.0301E+5	4.5210	0.0425	-362.9
371.72	9.0351E+5	4.5071	0.0414	-0.3
371.92	9.0401E+5	4.5109	0.0416	+357.2
372.11	9.0451E+5	4.5088	0.0420	+3.7
372.29	9.0501E+5	4.5106	Inf	-353.3
372.45	9.0551E+5	4.5094	0.0426	-360.3
372.64	9.0601E+5	4.5133	Inf	-0.3
372.82	9.0651E+5	4.5113	0.0414	+5.4
373.02	9.0701E+5	4.5023	0.0407	+2.0
373.20	9.0751E+5	4.5038	0.0420	-360.5
373.39	9.0801E+5	4.5087	Inf	-0.5
373.57	9.0851E+5	4.5037	0.0413	+7.3
373.75	9.0901E+5	4.5072	0.0423	-357.5
373.94	9.0951E+5	4.5005	0.0437	+1.8
374.12	9.1001E+5	4.5120	0.0400	-0.7
374.32	9.1051E+5	4.5071	Inf	+11.7
374.50	9.1101E+5	4.5041	0.0420	-358.0
374.70	9.1151E+5	4.5075	0.0444	-360.8
374.88	9.1201E+5	4.5116	0.0407	+4.7
375.08	9.1251E+5	4.5099	0.0415	-359.3
375.28	9.1301E+5	4.5078	0.0416	+3.1
375.45	9.1351E+5	4.5044	Inf	+2.3
375.63	9.1401E+5	4.5072	0.0406	-357.4
375.80	9.1451E+5	4.5065	0.0410	+3.1
375.96	9.1501E+5	4.5074	Inf	-9.9
376.15	9.1551E+5	4.5064	0.0414	-355.9
376.31	9.1601E+5	4.5077	Inf	+3.8
376.48	9.1651E+5	4.5033	0.0425	+360.5
376.68	9.1701E+5	4.5094	Inf	-17.1
376.85	9.1751E+5	4.5046	0.0411	-355.7
377.03	9.1801E+5	4.5098	Inf	+0.5
377.21	9.1851E+5	4.5081	0.0409	+11.1
377.38	9.1901E+5	4.5075	0.0455	+356.4
377.56	9.1951E+5	4.5030	0.0419	+4.8
377.76	9.2001E+5	4.5036	Inf	+348.1
377.93	9.2051E+5	4.5051	Inf	+4.5
378.11	9.2101E+5	4.5053	Inf	+5.1
378.28	9.2151E+5	4.5111	Inf	+2.3
378.44	9.2201E+5	4.5129	0.0421	-2.2
378.64	9.2251E+5	4.5099	0.0417	-4.6
378.82	9.2301E+5	4.5111	0.0407	-356.5
379.01	9.2351E+5	4.5055	0.0401	+6.1
379.21	9.2401E+5	4.4988	0.0407	+352.5
379.39	9.2451E+5	4.5063	Inf	-0.5
379.56	9.2501E+5	4.5071	Inf	-6.3
379.74	9.2551E+5	4.4972	0.0403	+1.0
379.91	9.2601E+5	4.5139	0.0407	+352.8
380.11	9.2651E+5	4.5029	Inf	+345.5
380.31	9.2701E+5	4.4996	0.0429	-353.7
380.49	9.2751E+5	4.4997	0.0432	-360.7
380.67	9.2801E+5	4.5051	0.0404	+4.0
380.87	9.2851E+5	4.5029	Inf	+339.9
381.04	9.2901E+5	4.5002	0.0424	+10.6
381.22	9.2951E+5	4.5087	Inf	-6.5
381.40	9.3001E+5	4.5051	0.0415	+0.3
381.58	9.3051E+5	4.5041	0.0406	-6.7
381.75	9.3101E+5	4.5123	0.0437	+352.6
381.95	9.3151E+5	4.5014	0.0410	-4.7
382.15	9.3201E+5	4.5058	Inf	+4.4
382.33	9.3251E+5	4.5053	0.0408	+358.0
382.50	9.3301E+5	4.5014	0.0423	-351.3
382.67	9.3351E+5	4.5040	0.0393	-5.6
382.87	9.3401E+5	4.5024	0.0414	-361.0
383.05	9.3451E+5	4.5157	Inf	-4.6
383.23	9.3501E+5	4.5043	Inf	-0.2
383.43	9.3551E+5	4.4955	0.0404	-3.7
383.60	9.3601E+5	4.5096	Inf	+348.0
383.76	9.3651E+5	4.5006	0.0429	-356.3
383.96	9.3701E+5	4.5065	0.0407	-0.5
384.15	9.3751E+5	4.5029	0.0422	-357.8
384.33	9.3801E+5	4.5050	0.0396	-3.4
384.53	9.3851E+5	4.5137	0.0459	-360.0
384.73	9.3901E+5	4.5113	0.0397	-356.6
384.93	9.3951E+5	4.5061	0.0406	+7.1
385.13	9.4001E+5	4.5157	0.0417	-362.5
385.31	9.4051E+5	4.5029	Inf	+2.4
385.49	9.4101E+5	4.5050	0.0404	+3.0
385.68	9.4151E+5	4.5068	0.0423	-357.8
385.86	9.4201E+5	4.5037	0.0371	-2.5
386.02	9.4251E+5	4.5050	Inf	+4.4
386.21	9.4301E+5	4.5009	0.0406	+6.4
386.39	9.4351E+5	4.5070	0.0402	+4.7
386.56	9.4401E+5	4.5048	0.0412	-0.5
386.74	9.4451E+5	4.5065	Inf	+5.8
386.91	9.4501E+5	4.5044	Inf	+8.0
387.07	9.4551E+5	4.5055	0.0407	+10.0
387.24	9.4601E+5	4.4975	0.0396	+0.7
387.42	9.4651E+5	4.5020	0.0395	-5.3
387.59	9.4701E+5	4.4979	Inf	+318.6
387.77	9.4751E+5	4.5051	Inf	-348.4
387.94	9.4801E+5	4.5053	0.0446	+362.6
388.12	9.4851E+5	4.5002	0.0412	+5.3
388.30	9.4901E+5	4.5038	0.0398	+3.4
388.49	9.4951E+5	4.4972	0.0400	-2.2
388.65	9.5001E+5	4.5002	Inf	+4.4
388.84	9.5051E+5	4.4945	0.0404	-356.6
389.02	9.5101E+5	4.5033	0.0398	+1.7
389.20	9.5151E+5	4.4986	Inf	-8.4
389.38	9.5201E+5	4.4975	Inf	+3.6
389.55	9.5251E+5	4.5054	Inf	+1.5
389.72	9.5301E+5	4.4980	Inf	-12.7
389.90	9.5351E+5	4.5046	0.0389	-4.8
390.07	9.5401E+5	4.5027	0.0408	+361.9
390.25	9.5451E+5	4.5082	Inf	+339.4
390.43	9.5501E+5	4.5024	Inf	-11.5
390.60	9.5551E+5	4.4982	0.0393	-5.5
390.77	9.5601E+5	4.4995	0.0399	+0.7
390.93	9.5651E+5	4.4995	0.0399	+0.7
391.10	9.5701E+5	4.4962	0.0434	+6.0
391.28	9.5751E+5	4.5005	0.0403	-0.7
391.48	9.5801E+5	4.5033	Inf	-4.8
391.65	9.5851E+5	4.5050	0.0400	+4.1
391.83	9.5901E+5	4.5051	0.0412	+359.5
392.03	9.5951E+5	4.5033	0.0395	+8.7
392.21	9.6001E+5	4.4976	Inf	+0.2
392.38	9.6051E+5	4.5041	Inf	+2.2
392.56	9.6101E+5	4.4988	Inf	+10.9
392.73	9.6151E+5	4.4979	0.0424	-357.2
392.91	9.6201E+5	4.5037	Inf	+352.6
393.09	9.6251E+5	4.4996	0.0409	+0.2
393.28	9.6301E+5	4.5014	0.0401	+7.3
393.46	9.6351E+5	4.5010	0.0435	+358.4
393.66	9.6401E+5	4.4968	Inf	-4.2
393.83	9.6451E+5	4.5013	0.0412	-2.9
394.01	9.6501E+5	4.5111	0.0391	+3.0
394.21	9.6551E+5	4.5014	0.0424	+364.9
394.39	9.6601E+5	4.5019	Inf	+5.2
394.56	9.6651E+5	4.4955	Inf	-11.7
394.73	9.6701E+5	4.4992	0.0401	+358.6
394.91	9.6751E+5	4.4973	Inf	-3.7
395.07	9.6801E+5	4.4962	0.0403	+6.1
395.24	9.6851E+5	4.5089	0.0398	+6.3
395.42	9.6901E+5	4.5063	Inf	+2.6
395.59	9.6951E+5	4.5010	Inf	+351.1
395.75	9.7001E+5	4.4952	0.0432	+351.8
395.95	9.7051E+5	4.5026	Inf	+5.2
396.10	9.7101E+5	4.4935	Inf	-19.1
396.27	9.7151E+5	4.5061	Inf	+345.0
396.45	9.7201E+5	4.5040	0.0406	+4.0
396.64	9.7251E+5	4.5031	0.0398	+358.1
396.82	9.7301E+5	4.4966	0.0404	+6.0
397.02	9.7351E+5	4.5017	0.0402	+2.8
397.20	9.7401E+5	4.5009	0.0407	-357.4
397.39	9.7451E+5	4.5012	Inf	-5.3
397.57	9.7501E+5	4.4983	0.0419	+365.5
397.75	9.7551E+5	4.5000	0.0406	-360.2
397.93	9.7601E+5	4.4972	0.0395	+3.7
398.12	9.7651E+5	4.5000	0.0408	+4.4
398.30	9.7701E+5	4.5010	0.0426	-359.8
398.48	9.7751E+5	4.5043	0.0418	-362.6
398.67	9.7801E+5	4.5071	0.0418	+22.0
398.83	9.7851E+5	4.5043	Inf	+354.5
399.00	9.7901E+5	4.4972	0.0414	-356.7
399.16	9.7951E+5	4.4972	Inf	+341.6
399.33	9.8001E+5	4.4972	0.0404	+6.5
399.50	9.8051E+5	4.5099	0.0406	-359.3
399.66	9.8101E+5	4.5057	0.0404	-352.7
399.85	9.8151E+5	4.4901	0.0443	+365.8
400.03	9.8201E+5	4.4930	0.0398	-353.5
400.21	9.8251E+5	4.5043	Inf	-11.5
400.39	9.8301E+5	4.4944	0.0449	-366.0
400.58	9.8351E+5	4.5000	Inf	+3.9
400.74	9.8401E+5	4.4986	Inf	-355.6
400.93	9.8451E+5	4.4972	0.0386	+0.0
401.11	9.8501E+5	4.4958	0.0394	+354.3
401.29	9.8551E+5	4.4972	Inf	+0.5
401.46	9.8601E+5	4.4958	Inf	+357.7
401.64	9.8651E+5	4.4944	0.0408	-360.5
401.82	9.8701E+5	4.4986	Inf	+346.5
401.99	9.8751E+5	4.5000	0.0405	-358.8
402.17	9.8801E+5	4.4958	Inf	+9.2
402.34	9.8851E+5	4.4972	0.0391	+0.4
402.52	9.8901E+5	4.4958	Inf	+341.7
402.71	9.8951E+5	4.4972	Inf	-19.9
402.87	9.9001E+5	4.5014	Inf	-1.6
403.04	9.9051E+5	4.4958	0.0398	-352.9
403.22	9.9101E+5	4.4915	Inf	+8.4
403.39	9.9151E+5	4.4986	Inf	+10.7
403.56	9.9201E+5	4.4972	0.0389	-1.2
403.74	9.9251E+5	4.5043	0.0397	-3.4
403.94	9.9301E+5	4.4958	0.0392	-5.7
404.10	9.9351E+5	4.4930	Inf	+0.2
404.27	9.9401E+5	4.4986	Inf	+338.2
404.45	9.9451E+5	4.4887	0.0416	-362.5
404.64	9.9501E+5	4.5029	0.0434	-357.1
404.82	9.9551E+5	4.4986	Inf	-14.0
405.00	9.9601E+5	4.4944	0.0407	-358.7
405.18	9.9651E+5	4.4915	0.0385	-4.1
405.35	9.9701E+5	4.4901	0.0400	+359.8
405.55	9.9751E+5	4.4972	Inf	+339.9
405.72	9.9801E+5	4.4915	Inf	+6.7
405.88	9.9851E+5	4.5014	Inf	+9.2
406.05	9.9901E+5	4.4972	0.0418	+364.5
406.25	9.9951E+5	4.4901	0.0385	+7.2
406.43	1.0000E+6	4.5043	Inf	+5.6
406.60	1.0005E+6	4.4930	0.0393	+2.5
406.78	1.0010E+6	4.4930	Inf	-18.9
406.95	1.0015E+6	4.4930	0.0399	-0.4
407.10	1.0020E+6	4.4958	0.0418	-359.5
407.30	1.0025E+6	4.4901	Inf	+4.3
407.46	1.0030E+6	4.4901	Inf	+357.5
407.63	1.0035E+6	4.4915	0.0400	+6.0
407.81	1.0040E+6	4.4930	Inf	+3.6
408.00	1.0045E+6	4.4944	0.0400	+358.2
408.16	1.0050E+6	4.4930	Inf	-4.5
408.33	1.0055E+6	4.5142	0.0384	-1.8
408.54	1.0060E+6	4.5071	0.0423	+362.9
408.74	1.0065E+6	4.5057	Inf	-362.4
408.91	1.0070E+6	4.5212	Inf	-8.2
409.09	1.0075E+6	4.5212	0.0385	+4.5
409.29	1.0080E+6	4.5128	Inf	+2.7
409.46	1.0085E+6	4.5142	0.0388	-2.0
409.63	1.0090E+6	4.5156	0.0400	+2.0
409.82	1.0095E+6	4.5043	Inf	-15.8
410.01	1.0100E+6	4.5057	0.0362	-7.3
410.19	1.0105E+6	4.5113	0.0386	-4.9
410.39	1.0110E+6	4.5170	0.0383	-1.6
410.56	1.0115E+6	4.5156	0.0391	-1.6
410.74	1.0120E+6	4.5142	0.0418	+365.7
410.92	1.0125E+6	4.5043	0.0400	+363.1
411.14	1.0130E+6	4.5142	0.0384	-1.1
411.34	1.0135E+6	4.5198	Inf	+350.3
411.50	1.0140E+6	4.5057	0.0409	-363.1
411.72	1.0145E+6	4.5113	Inf	+0.5
411.89	1.0150E+6	4.5085	0.0428	-364.9
412.07	1.0155E+6	4.5071	Inf	-353.4
412.24	1.0160E+6	4.5071	0.0387	+5.9
412.44	1.0165E+6	4.5099	Inf	+353.6
412.60	1.0170E+6	4.5142	Inf	-7.1
412.79	1.0175E+6	4.5085	Inf	+362.2
412.99	1.0180E+6	4.5071	Inf	-10.6
413.15	1.0185E+6	4.5085	Inf	-354.7
413.32	1.0190E+6	4.5099	0.0335	-24.3
413.50	1.0195E+6	4.5029	Inf	-356.0
413.68	1.0200E+6	4.5128	Inf	+Inf
413.87	1.0205E+6	4.5000	0.0397	-362.0
414.07	1.0210E+6	4.5085	Inf	+355.8
414.25	1.0215E+6	4.5099	Inf	+8.5
414.42	1.0220E+6	4.5071	Inf	-359.1
414.58	1.0225E+6	4.5057	Inf	-15.0
414.75	1.0230E+6	4.5071	Inf	-11.8
414.93	1.0235E+6	4.5128	0.0379	+1.7
415.13	1.0240E+6	4.5057	Inf	-353.2
415.31	1.0245E+6	4.5128	Inf	-1.7
415.51	1.0250E+6	4.5113	Inf	+7.2
415.70	1.0255E+6	4.5170	Inf	-40.6
415.88	1.0260E+6	4.5057	0.0388	+1.7
416.06	1.0265E+6	4.5029	Inf	+358.5
416.25	1.0270E+6	4.5099	Inf	+0.6
416.41	1.0275E+6	4.5128	0.0388	+355.7
416.59	1.0280E+6	4.5113	Inf	-7.4
416.78	1.0285E+6	4.5099	0.0378	+6.8
416.94	1.0290E+6	4.5099	Inf	+343.5
417.11	1.0295E+6	4.4972	Inf	+8.4
417.28	1.0300E+6	4.5156	0.0408	+363.7
417.49	1.0305E+6	4.5071	Inf	-352.4
417.67	1.0310E+6	4.5085	Inf	-16.7
417.84	1.0315E+6	4.5113	Inf	-16.2
418.02	1.0320E+6	4.5099	Inf	+357.4
418.19	1.0325E+6	4.5085	0.0383	-4.6
418.37	1.0330E+6	4.5085	0.0392	-5.8
418.56	1.0335E+6	4.5113	Inf	+360.2
418.74	1.0340E+6	4.5071	0.0385	+360.7
418.92	1.0345E+6	4.5085	Inf	-2.4
419.09	1.0350E+6	4.5142	0.0395	+0.9
419.31	1.0355E+6	4.5085	0.0392	+362.1
419.49	1.0360E+6	4.5128	0.0390	-4.3
419.65	1.0365E+6	4.5128	0.0387	+0.9
419.84	1.0370E+6	4.5113	0.0409	-366.7
420.05	1.0375E+6	4.5014	Inf	+347.3
420.22	1.0380E+6	4.5071	Inf	+2.6
420.38	1.0385E+6	4.5043	0.0396	+362.8
420.59	1.0390E+6	4.5085	Inf	+333.9
420.75	1.0395E+6	4.5099	Inf	+345.6
420.90	1.0400E+6	4.5113	Inf	-21.8
421.07	1.0405E+6	4.5071	0.0392	+362.6
421.23	1.0410E+6	4.5085	Inf	+353.1
421.40	1.0415E+6	4.5000	0.0381	-360.6
421.57	1.0420E+6	4.5099	0.0391	+1.3
421.75	1.0425E+6	4.5099	0.0404	+365.2
421.95	1.0430E+6	4.5057	0.0393	+4.3
422.13	1.0435E+6	4.5043	Inf	-358.7
422.30	1.0440E+6	4.5014	0.0386	+362.1
422.50	1.0445E+6	4.5014	0.0388	+356.6
422.66	1.0450E+6	4.5014	Inf	+355.9
422.83	1.0455E+6	4.4972	Inf	-355.3
423.00	1.0460E+6	4.5043	Inf	-3.8
423.18	1.0465E+6	4.5057	Inf	-365.7
423.35	1.0470E+6	4.5085	Inf	-16.8
423.51	1.0475E+6	4.5099	0.0402	+361.1
423.70	1.0480E+6	4.5043	0.0386	+358.7
423.89	1.0485E+6	4.5057	0.0411	+365.9
424.08	1.0490E+6	4.5043	Inf	+3.8
424.25	1.0495E+6	4.5057	Inf	-367.9
424.43	1.0500E+6	4.5043	Inf	+358.9
424.59	1.0505E+6	4.4986	Inf	-10.0
424.74	1.0510E+6	4.5099	0.0398	+365.3
424.93	1.0515E+6	4.4986	0.0390	-2.6
425.11	1.0520E+6	4.5000	0.0384	-2.5
425.29	1.0525E+6	4.5057	0.0387	-1.7
425.46	1.0530E+6	4.5000	Inf	-2.1
425.62	1.0535E+6	4.5014	Inf	+359.4
425.81	1.0540E+6	4.5057	Inf	-355.2
425.98	1.0545E+6	4.5057	Inf	-28.9
426.14	1.0550E+6	4.5029	Inf	-361.3
426.32	1.0555E+6	4.5014	0.0387	+356.4
426.49	1.0560E+6	4.4972	Inf	+349.9
426.65	1.0565E+6	4.5000	Inf	-3.4
426.80	1.0570E+6	4.5071	Inf	-5.7
426.99	1.0575E+6	4.5043	Inf	+Inf
427.15	1.0580E+6	4.5029	Inf	-3.2
427.32	1.0585E+6	4.4958	0.0380	+1.3
427.49	1.0590E+6	4.4986	Inf	-359.6
427.67	1.0595E+6	4.5000	Inf	-8.6
427.84	1.0600E+6	4.5000	0.0391	-5.9
428.00	1.0605E+6	4.4944	0.0380	+0.2
428.20	1.0610E+6	4.4972	Inf	-15.9
428.37	1.0615E+6	4.4972	Inf	-32.3
428.54	1.0620E+6	4.4972	0.0369	+0.6
428.72	1.0625E+6	4.5057	Inf	+359.2
428.90	1.0630E+6	4.5085	0.0383	+2.1
429.08	1.0635E+6	4.5000	0.0388	+361.9
429.25	1.0640E+6	4.5014	0.0384	+0.2
429.42	1.0645E+6	4.5029	Inf	+6.3
429.60	1.0650E+6	4.5029	Inf	+344.3
429.76	1.0655E+6	4.4972	Inf	+344.5
429.93	1.0660E+6	4.5071	Inf	-364.6
430.08	1.0665E+6	4.5014	Inf	+333.2
430.25	1.0670E+6	4.5000	Inf	+334.8
430.42	1.0675E+6	4.5014	0.0379	+0.8
430.58	1.0680E+6	4.5029	0.0379	+7.7
430.73	1.0685E+6	4.5029	0.0382	-1.0
430.91	1.0690E+6	4.4972	0.0381	-8.6
431.08	1.0695E+6	4.4972	0.0377	+1.7
431.25	1.0700E+6	4.5043	Inf	+356.3
431.43	1.0705E+6	4.4986	0.0372	+0.4
431.61	1.0710E+6	4.5085	Inf	-12.3
431.78	1.0715E+6	4.5085	Inf	+6.0
431.94	1.0720E+6	4.5000	Inf	+342.0
432.13	1.0725E+6	4.4972	Inf	-350.7
432.29	1.0730E+6	4.5014	0.0374	-3.7
432.44	1.0735E+6	4.5113	0.0382	-358.1
432.63	1.0740E+6	4.5000	0.0382	-7.1
432.81	1.0745E+6	4.5029	0.0389	+360.6
432.98	1.0750E+6	4.5000	Inf	+348.0
433.14	1.0755E+6	4.5000	0.0386	+1.2
433.32	1.0760E+6	4.5000	0.0380	-3.1
433.51	1.0765E+6	4.5029	Inf	-361.9
433.67	1.0770E+6	4.5014	Inf	+361.7
433.84	1.0775E+6	4.5014	Inf	-9.9
434.01	1.0780E+6	4.5029	Inf	+353.2
434.19	1.0785E+6	4.4972	0.0372	-2.7
434.36	1.0790E+6	4.5014	Inf	+8.6
434.52	1.0795E+6	4.5057	0.0382	+7.6
434.71	1.0800E+6	4.5000	0.0382	+1.9
434.87	1.0805E+6	4.4887	0.0376	-1.2
435.04	1.0810E+6	4.4986	Inf	+5.4
435.20	1.0815E+6	4.5071	Inf	-10.7
435.37	1.0820E+6	4.5043	Inf	-32.5
435.55	1.0825E+6	4.5014	0.0375	-4.3
435.72	1.0830E+6	4.4944	Inf	+358.4
435.89	1.0835E+6	4.5029	Inf	+Inf
436.05	1.0840E+6	4.4944	Inf	-6.8
436.24	1.0845E+6	4.5057	0.0385	+357.1
436.40	1.0850E+6	4.5014	Inf	-356.5
436.57	1.0855E+6	4.4958	0.0359	-4.7
436.77	1.0860E+6	4.5014	Inf	-4.7
436.93	1.0865E+6	4.4944	0.0395	-358.2
437.12	1.0870E+6	4.5043	Inf	-355.1
437.28	1.0875E+6	4.5043	0.0389	+5.1
437.48	1.0880E+6	4.4944	Inf	-17.2
437.65	1.0885E+6	4.4944	Inf	+356.7
437.81	1.0890E+6	4.5014	Inf	+339.5
437.98	1.0895E+6	4.4901	Inf	+8.3
438.16	1.0900E+6	4.4944	Inf	-17.1
438.31	1.0905E+6	4.5043	0.0369	-2.9
438.50	1.0910E+6	4.4986	0.0373	-3.3
438.66	1.0915E+6	4.5014	0.0378	-9.0
438.86	1.0920E+6	4.4930	0.0381	-350.2
439.03	1.0925E+6	4.4972	0.0378	-2.8
439.19	1.0930E+6	4.4986	0.0398	-363.3
439.36	1.0935E+6	4.4986	Inf	-0.6
439.55	1.0940E+6	4.5000	0.0372	-0.6
439.73	1.0945E+6	4.5043	Inf	-364.3
439.89	1.0950E+6	4.5014	Inf	+364.0
440.06	1.0955E+6	4.4958	0.0401	+366.9
440.26	1.0960E+6	4.5071	0.0368	+0.6
440.44	1.0965E+6	4.4930	0.0384	-359.4
440.62	1.0970E+6	4.4944	Inf	+0.0
440.79	1.0975E+6	4.5029	Inf	+351.1
440.98	1.0980E+6	4.4944	Inf	+349.7
441.14	1.0985E+6	4.5029	0.0375	-1.0
441.31	1.0990E+6	4.4972	0.0377	-2.2
441.47	1.0995E+6	4.5057	Inf	+344.6
441.66	1.1000E+6	4.4986	Inf	-3.0
441.82	1.1005E+6	4.4958	Inf	+1.2
441.97	1.1010E+6	4.4958	Inf	-357.4
442.14	1.1015E+6	4.4944	Inf	+5.3
442.32	1.1020E+6	4.4901	Inf	+363.4
442.49	1.1025E+6	4.4958	0.0378	+3.4
442.65	1.1030E+6	4.5029	0.0381	+0.0
442.82	1.1035E+6	4.4859	Inf	-23.8
443.00	1.1040E+6	4.4944	Inf	+359.0
443.17	1.1045E+6	4.4944	0.0389	+5.2
443.35	1.1050E+6	4.4958	0.0384	+361.0
443.54	1.1055E+6	4.5000	0.0381	-3.6
443.72	1.1060E+6	4.4986	Inf	+358.2
443.88	1.1065E+6	4.4915	Inf	-352.2
444.05	1.1070E+6	4.5014	Inf	-7.8
444.22	1.1075E+6	4.5057	Inf	-357.8
444.38	1.1080E+6	4.4901	0.0394	-367.4
444.58	1.1085E+6	4.4944	0.0368	-7.2
444.77	1.1090E+6	4.4944	Inf	-9.2
444.93	1.1095E+6	4.4958	0.0369	-1.2
445.10	1.1100E+6	4.4972	0.0366	-2.8
445.28	1.1105E+6	4.5029	Inf	+1.2
445.45	1.1110E+6	4.4944	0.0373	-2.2
445.62	1.1115E+6	4.4972	Inf	+359.8
445.78	1.1120E+6	4.5000	0.0368	-2.2
445.95	1.1125E+6	4.4986	Inf	+347.2
446.12	1.1130E+6	4.4930	0.0390	+364.8
446.30	1.1135E+6	4.4972	Inf	+368.4
446.46	1.1140E+6	4.4958	0.0375	-0.8
446.66	1.1145E+6	4.5014	0.0370	-3.8
446.85	1.1150E+6	4.4944	0.0349	-1.8
447.03	1.1155E+6	4.4972	0.0373	-359.2
447.21	1.1160E+6	4.4901	Inf	-359.0
447.39	1.1165E+6	4.4887	Inf	-3.8
447.55	1.1170E+6	4.4887	Inf	-17.8
447.71	1.1175E+6	4.4887	0.0373	-5.8
447.88	1.1180E+6	4.5029	0.0382	+1.8
448.08	1.1185E+6	4.4915	Inf	-362.6
448.24	1.1190E+6	4.4873	Inf	+3.0
448.41	1.1195E+6	4.4930	Inf	+349.9
448.56	1.1200E+6	4.4930	0.0379	+5.6
448.74	1.1205E+6	4.4944	0.0359	-4.6
448.91	1.1210E+6	4.4915	0.0387	+1.6
449.09	1.1215E+6	4.4930	Inf	+338.3
449.26	1.1220E+6	4.5000	0.0363	-1.2
449.44	1.1225E+6	4.4972	0.0374	-361.2
449.62	1.1230E+6	4.4972	Inf	+364.6
449.79	1.1235E+6	4.4873	Inf	+331.3
449.96	1.1240E+6	4.4915	Inf	+364.3
450.12	1.1245E+6	4.4887	Inf	+4.0
450.31	1.1250E+6	4.4972	Inf	-12.2
450.47	1.1255E+6	4.4972	Inf	-1.4
450.64	1.1260E+6	4.4944	Inf	-5.7
450.80	1.1265E+6	4.4986	0.0371	-3.2
450.99	1.1270E+6	4.4915	Inf	-4.7
451.15	1.1275E+6	4.4915	Inf	+341.5
451.32	1.1280E+6	4.4915	Inf	+354.9
451.47	1.1285E+6	4.4859	Inf	+354.3
451.65	1.1290E+6	4.4930	Inf	+354.5
451.80	1.1295E+6	4.4958	Inf	-0.2
451.95	1.1300E+6	4.4930	Inf	-361.6
452.10	1.1305E+6	4.4930	0.0359	+4.5
452.30	1.1310E+6	4.4901	Inf	-35.0
452.47	1.1315E+6	4.4972	Inf	-8.2
452.63	1.1320E+6	4.4915	Inf	+Inf
452.80	1.1325E+6	4.4958	0.0382	+365.1
452.98	1.1330E+6	4.4887	Inf	-3.7
453.15	1.1335E+6	4.4887	Inf	-354.3
453.30	1.1340E+6	4.4873	Inf	+341.8
453.45	1.1345E+6	4.4915	0.0381	+362.5
453.60	1.1350E+6	4.4859	0.0389	-363.9
453.78	1.1355E+6	4.4915	Inf	+356.1
453.93	1.1360E+6	4.4859	Inf	-358.8
454.08	1.1365E+6	4.4901	Inf	+351.8
454.23	1.1370E+6	4.4901	0.0363	-360.8
454.43	1.1375E+6	4.4901	0.0354	+6.3
454.61	1.1380E+6	4.4887	0.0349	+1.0
454.78	1.1385E+6	4.4901	Inf	+354.5
454.94	1.1390E+6	4.4958	Inf	+344.8
455.09	1.1395E+6	4.4915	Inf	+350.7
455.26	1.1400E+6	4.4901	Inf	+8.8
455.41	1.1405E+6	4.4887	Inf	+2.3
455.56	1.1410E+6	4.4845	Inf	+347.7
455.71	1.1415E+6	4.5000	Inf	+364.5
455.87	1.1420E+6	4.4972	Inf	-366.2
456.02	1.1425E+6	4.4972	Inf	-365.9
456.18	1.1430E+6	4.4873	Inf	-3.9
456.32	1.1435E+6	4.4901	Inf	+Inf
456.49	1.1440E+6	4.4986	Inf	+359.8
456.64	1.1445E+6	4.4915	Inf	-3.9
456.79	1.1450E+6	4.4930	Inf	-31.9
456.94	1.1455E+6	4.4915	Inf	+329.2
457.09	1.1460E+6	4.4901	Inf	+358.1
457.25	1.1465E+6	4.5000	Inf	+Inf
457.40	1.1470E+6	4.4915	Inf	-354.2
457.56	1.1475E+6	4.4873	Inf	+331.1
457.70	1.1480E+6	4.4901	Inf	+371.4
457.89	1.1485E+6	4.4873	Inf	-357.1
458.06	1.1490E+6	4.4930	Inf	-364.1
458.22	1.1495E+6	4.4930	0.0330	+1.2
458.39	1.1500E+6	4.4901	0.0313	+2.1
