#date: 15.10.2020	time: 13:11:30
#t (s)	f (Hz)	A1 (V)	A2 (V)	phase (deg)
23.48	1.0000E+1	1.5234	0.0007	+134.4
23.74	1.0100E+3	2.3671	Inf	+Inf
24.22	2.0100E+3	2.3938	Inf	+Inf
24.43	3.0100E+3	2.4422	0.1400	+117.7
24.67	4.0100E+3	2.5075	0.1932	+113.4
24.88	5.0100E+3	2.5845	0.2370	+119.1
25.13	6.0100E+3	2.6695	0.2786	+124.2
25.35	7.0100E+3	2.7579	0.3196	+128.1
25.60	8.0100E+3	2.8594	0.3577	+130.5
25.83	9.0100E+3	2.9652	0.3935	+136.2
26.05	1.0010E+4	3.0638	0.4278	+137.4
26.27	1.1010E+4	3.1479	0.4572	+139.4
26.48	1.2010E+4	3.2303	0.4849	+142.0
26.70	1.3010E+4	3.3170	0.5135	+145.5
26.91	1.4010E+4	3.3955	0.5405	+146.8
27.15	1.5010E+4	3.4660	0.5590	+148.2
27.36	1.6010E+4	3.5326	0.5797	+152.3
27.58	1.7010E+4	3.5958	0.5955	+151.6
27.80	1.8010E+4	3.6410	0.6105	+152.3
28.01	1.9010E+4	3.6888	0.6252	+153.8
28.24	2.0010E+4	3.7410	0.6396	+154.5
28.46	2.1010E+4	3.7897	0.6538	+154.8
28.69	2.2010E+4	3.8337	0.6661	+157.1
28.91	2.3010E+4	3.8737	0.6774	+159.6
29.14	2.4010E+4	3.9168	0.6874	+158.1
29.38	2.5010E+4	3.9485	0.6957	+159.0
29.59	2.6010E+4	3.9865	0.7061	+160.5
29.81	2.7010E+4	4.0226	0.7147	+162.1
30.04	2.8010E+4	4.0516	0.7227	+161.9
30.26	2.9010E+4	4.0755	0.7295	+164.1
30.49	3.0010E+4	4.1040	0.7364	+163.3
30.70	3.1010E+4	4.1261	0.7429	+164.3
30.94	3.2010E+4	4.1502	0.7476	+165.9
31.17	3.3010E+4	4.1701	0.7528	+164.3
31.37	3.4010E+4	4.1888	0.7594	+165.4
31.60	3.5010E+4	4.2093	0.7638	+164.3
31.82	3.6010E+4	4.2261	0.7690	+165.5
32.04	3.7010E+4	4.2381	0.7729	+165.5
32.27	3.8010E+4	4.2503	0.7777	+166.4
32.48	3.9010E+4	4.2619	0.7815	+167.4
32.72	4.0010E+4	4.2723	0.7856	+165.7
32.92	4.1010E+4	4.2825	0.7886	+166.0
33.13	4.2010E+4	4.2916	0.7918	+167.6
33.37	4.3010E+4	4.3036	0.7946	+167.1
33.58	4.4010E+4	4.3105	0.7973	+167.9
33.78	4.5010E+4	4.3175	0.8003	+169.2
34.00	4.6010E+4	4.3257	0.8031	+169.3
34.20	4.7010E+4	4.3341	0.8057	+168.2
34.41	4.8010E+4	4.3445	0.8085	+168.7
34.65	4.9010E+4	4.3497	0.8101	+169.9
34.83	5.0010E+4	4.3558	0.8126	+169.2
35.03	5.1010E+4	4.3593	0.8153	+169.3
35.23	5.2010E+4	4.3662	0.8174	+170.2
35.43	5.3010E+4	4.3725	0.8197	+169.9
35.66	5.4010E+4	4.3759	0.8217	+170.8
35.86	5.5010E+4	4.3829	0.8239	+168.8
36.06	5.6010E+4	4.3828	0.8253	+170.7
36.26	5.7010E+4	4.3938	0.8277	+169.0
36.48	5.8010E+4	4.3968	0.8290	+169.7
36.68	5.9010E+4	4.3999	0.8310	+170.5
36.89	6.0010E+4	4.4013	0.8328	+171.1
37.08	6.1010E+4	4.4043	0.8338	+170.5
37.27	6.2010E+4	4.4074	0.8362	+170.8
37.49	6.3010E+4	4.4115	0.8372	+171.8
37.69	6.4010E+4	4.4159	0.8392	+171.4
37.91	6.5010E+4	4.4208	0.8409	+170.2
38.09	6.6010E+4	4.4224	0.8426	+170.6
38.29	6.7010E+4	4.4282	0.8436	+170.9
38.49	6.8010E+4	4.4306	0.8456	+172.3
38.70	6.9010E+4	4.4271	0.8463	+173.7
38.89	7.0010E+4	4.4351	0.8491	+171.3
39.09	7.1010E+4	4.4358	0.8501	+172.2
39.29	7.2010E+4	4.4370	0.8508	+171.3
39.47	7.3010E+4	4.4419	0.8529	+171.6
39.69	7.4010E+4	4.4454	0.8550	+171.5
39.89	7.5010E+4	4.4473	0.8553	+172.2
40.07	7.6010E+4	4.4514	0.8577	+172.9
40.27	7.7010E+4	4.4525	0.8594	+173.1
40.47	7.8010E+4	4.4541	0.8604	+171.8
40.65	7.9010E+4	4.4592	0.8617	+172.3
40.88	8.0010E+4	4.4536	0.8627	+173.2
41.08	8.1010E+4	4.4570	0.8642	+173.0
41.31	8.2010E+4	4.4590	0.8659	+175.0
41.50	8.3010E+4	4.4596	0.8680	+174.1
41.72	8.4010E+4	4.4627	0.8689	+173.4
41.90	8.5010E+4	4.4664	0.8714	+174.8
42.10	8.6010E+4	4.4654	0.8727	+174.3
42.30	8.7010E+4	4.4676	0.8741	+173.7
42.48	8.8010E+4	4.4706	0.8753	+173.3
42.66	8.9010E+4	4.4723	0.8770	+174.4
42.88	9.0010E+4	4.4743	0.8788	+174.5
43.08	9.1010E+4	4.4754	0.8801	+173.9
43.26	9.2010E+4	4.4764	0.8812	+173.7
43.46	9.3010E+4	4.4761	0.8833	+173.7
43.66	9.4010E+4	4.4778	0.8846	+173.0
43.88	9.5010E+4	4.4802	0.8857	+173.3
44.06	9.6010E+4	4.4829	0.8873	+174.1
44.26	9.7010E+4	4.4856	0.8893	+173.9
44.46	9.8010E+4	4.4823	0.8912	+174.5
44.69	9.9010E+4	4.4840	0.8925	+175.3
44.92	1.0001E+5	4.4780	0.8949	+175.6
45.12	1.0101E+5	4.4833	0.8948	+174.9
45.32	1.0201E+5	4.4859	0.8969	+173.5
45.54	1.0301E+5	4.4860	0.8987	+174.5
45.76	1.0401E+5	4.4887	0.9006	+176.4
45.94	1.0501E+5	4.4850	0.9017	+175.8
46.14	1.0601E+5	4.4922	0.9050	+175.8
46.34	1.0701E+5	4.4907	0.9059	+175.3
46.54	1.0801E+5	4.4934	0.9067	+175.1
46.76	1.0901E+5	4.4944	0.9086	+174.7
46.94	1.1001E+5	4.4928	0.9102	+174.7
47.14	1.1101E+5	4.4968	0.9130	+175.1
47.35	1.1201E+5	4.4996	0.9147	+177.0
47.54	1.1301E+5	4.4954	0.9160	+173.6
47.74	1.1401E+5	4.4949	0.9168	+175.1
47.92	1.1501E+5	4.4975	0.9195	+176.5
48.14	1.1601E+5	4.5023	0.9216	+175.4
48.33	1.1701E+5	4.4982	0.9224	+175.1
48.52	1.1801E+5	4.5014	0.9249	+174.5
48.72	1.1901E+5	4.5019	0.9267	+175.0
48.93	1.2001E+5	4.5057	0.9291	+175.8
49.12	1.2101E+5	4.5017	0.9294	+174.2
49.31	1.2201E+5	4.5078	0.9324	+176.1
49.53	1.2301E+5	4.5064	0.9352	+177.1
49.73	1.2401E+5	4.5081	0.9356	+174.7
49.91	1.2501E+5	4.5047	0.9386	+175.4
50.11	1.2601E+5	4.5054	0.9407	+174.4
50.31	1.2701E+5	4.5099	0.9421	+173.5
50.50	1.2801E+5	4.5129	0.9440	+174.9
50.71	1.2901E+5	4.5085	0.9464	+174.0
50.95	1.3001E+5	4.5078	0.9482	+174.0
51.13	1.3101E+5	4.5128	0.9505	+174.5
51.34	1.3201E+5	4.5142	0.9516	+174.9
51.53	1.3301E+5	4.5128	0.9552	+174.4
51.73	1.3401E+5	4.5128	0.9563	+175.8
51.91	1.3501E+5	4.5156	0.9583	+173.7
52.11	1.3601E+5	4.5156	0.9601	+176.5
52.29	1.3701E+5	4.5128	0.9622	+175.8
52.49	1.3801E+5	4.5156	0.9651	+175.7
52.69	1.3901E+5	4.5170	0.9689	+176.1
52.89	1.4001E+5	4.5198	0.9717	+176.5
53.11	1.4101E+5	4.5128	0.9726	+176.2
53.29	1.4201E+5	4.5198	0.9765	+174.5
53.51	1.4301E+5	4.5170	0.9789	+177.3
53.71	1.4401E+5	4.5170	0.9808	+177.5
53.92	1.4501E+5	4.5212	0.9844	+176.3
54.12	1.4601E+5	4.5227	0.9868	+175.6
54.32	1.4701E+5	4.5184	0.9908	+175.5
54.52	1.4801E+5	4.5198	0.9928	+176.1
54.72	1.4901E+5	4.5241	0.9967	+176.2
54.92	1.5001E+5	4.5212	0.9994	+175.7
55.12	1.5101E+5	4.5241	1.0017	+176.6
55.32	1.5201E+5	4.5227	1.0042	+177.3
55.52	1.5301E+5	4.5198	1.0088	+176.6
55.72	1.5401E+5	4.5227	1.0113	+176.1
55.92	1.5501E+5	4.5212	1.0147	+177.2
56.12	1.5601E+5	4.5255	1.0174	+177.3
56.32	1.5701E+5	4.5269	1.0215	+176.1
56.53	1.5801E+5	4.5241	1.0243	+177.1
56.73	1.5901E+5	4.5255	1.0279	+175.6
56.95	1.6001E+5	4.5255	1.0305	+175.5
57.15	1.6101E+5	4.5297	1.0341	+176.7
57.35	1.6201E+5	4.5255	1.0366	+174.6
57.53	1.6301E+5	4.5283	1.0407	+175.9
57.75	1.6401E+5	4.5255	1.0444	+175.2
57.95	1.6501E+5	4.5255	1.0464	+176.1
58.15	1.6601E+5	4.5255	1.0493	+175.8
58.36	1.6701E+5	4.5269	1.0520	+176.8
58.56	1.6801E+5	4.5311	1.0570	+176.4
58.78	1.6901E+5	4.5283	1.0600	+176.7
58.98	1.7001E+5	4.5283	1.0622	+176.0
59.19	1.7101E+5	4.5297	1.0652	+175.8
59.41	1.7201E+5	4.5297	1.0680	+175.1
59.61	1.7301E+5	4.5297	1.0717	+176.4
59.81	1.7401E+5	4.5283	1.0748	+177.6
60.03	1.7501E+5	4.5311	1.0773	+176.6
60.24	1.7601E+5	4.5326	1.0809	+177.5
60.44	1.7701E+5	4.5297	1.0836	+176.2
60.66	1.7801E+5	4.5297	1.0853	+177.9
60.87	1.7901E+5	4.5297	1.0895	+176.2
61.07	1.8001E+5	4.5311	1.0930	+175.6
61.27	1.8101E+5	4.5354	1.0950	+177.3
61.47	1.8201E+5	4.5311	1.0991	+176.6
61.67	1.8301E+5	4.5354	1.1018	+177.3
61.87	1.8401E+5	4.5326	1.1037	+177.2
62.07	1.8501E+5	4.5326	1.1076	+177.7
62.27	1.8601E+5	4.5326	1.1107	+175.0
62.47	1.8701E+5	4.5326	1.1141	+178.7
62.69	1.8801E+5	4.5311	1.1185	+176.8
62.89	1.8901E+5	4.5326	1.1215	+176.5
63.10	1.9001E+5	4.5340	1.1246	+177.3
63.30	1.9101E+5	4.5368	1.1292	+176.1
63.52	1.9201E+5	4.5340	1.1336	+176.1
63.73	1.9301E+5	4.5354	1.1386	+176.6
63.94	1.9401E+5	4.5354	1.1414	+178.4
64.15	1.9501E+5	4.5354	1.1455	+177.3
64.35	1.9601E+5	4.5354	1.1505	+176.7
64.57	1.9701E+5	4.5354	1.1547	+176.9
64.77	1.9801E+5	4.5354	1.1592	+179.2
64.98	1.9901E+5	4.5354	1.1655	+179.6
65.20	2.0001E+5	4.5340	1.1674	+176.6
65.40	2.0101E+5	4.5354	1.1714	+178.6
65.60	2.0201E+5	4.5382	1.1759	+179.2
65.80	2.0301E+5	4.5382	1.1812	+180.2
66.00	2.0401E+5	4.5382	1.1843	+178.2
66.20	2.0501E+5	4.5396	1.1902	+180.0
66.40	2.0601E+5	4.5382	1.1944	+179.0
66.61	2.0701E+5	4.5354	1.1981	+180.6
66.81	2.0801E+5	4.5439	1.2046	+179.9
67.03	2.0901E+5	4.5368	1.2087	+179.9
67.26	2.1001E+5	4.5340	1.2124	+179.7
67.46	2.1101E+5	4.5368	1.2179	+179.4
67.66	2.1201E+5	4.5396	1.2216	-180.6
67.86	2.1301E+5	4.5396	1.2270	+179.5
68.08	2.1401E+5	4.5396	1.2322	+179.0
68.28	2.1501E+5	4.5396	1.2370	+179.2
68.48	2.1601E+5	4.5354	1.2413	+179.6
68.67	2.1701E+5	4.5382	1.2489	+178.1
68.87	2.1801E+5	4.5382	1.2490	+179.7
69.06	2.1901E+5	4.5425	1.2533	+180.0
69.29	2.2001E+5	4.5382	1.2608	+177.8
69.51	2.2101E+5	4.5410	1.2659	+177.5
69.72	2.2201E+5	4.5396	1.2712	+179.6
69.95	2.2301E+5	4.5410	1.2751	+178.9
70.19	2.2401E+5	4.5396	1.2814	+179.6
70.42	2.2501E+5	4.5425	1.2868	+179.1
70.64	2.2601E+5	4.5410	1.2924	+178.2
70.84	2.2701E+5	4.5396	1.2991	+179.2
71.07	2.2801E+5	4.5439	1.3050	-179.3
71.29	2.2901E+5	4.5410	1.3103	+180.4
71.48	2.3001E+5	4.5453	1.3166	+180.5
71.70	2.3101E+5	4.5481	1.3244	+178.1
71.90	2.3201E+5	4.5453	1.3279	+180.2
72.10	2.3301E+5	4.5439	1.3336	+178.0
72.30	2.3401E+5	4.5410	1.3405	+179.9
72.52	2.3501E+5	4.5382	1.3482	+180.1
72.75	2.3601E+5	4.5382	1.3541	+179.4
72.97	2.3701E+5	4.5410	1.3612	-179.8
73.20	2.3801E+5	4.5396	1.3683	+178.5
73.41	2.3901E+5	4.5368	1.3770	+180.2
73.63	2.4001E+5	4.5396	1.3864	-179.0
73.83	2.4101E+5	4.5425	1.3936	-179.7
74.06	2.4201E+5	4.5410	1.4042	+180.1
74.28	2.4301E+5	4.5425	1.4101	+178.8
74.48	2.4401E+5	4.5453	1.4243	+180.3
74.69	2.4501E+5	4.5439	1.4319	-180.5
74.91	2.4601E+5	4.5410	1.4377	+179.6
75.13	2.4701E+5	4.5425	1.4480	+179.4
75.33	2.4801E+5	4.5410	1.4572	-179.9
75.54	2.4901E+5	4.5425	1.4670	+178.9
75.74	2.5001E+5	4.5467	1.4712	+179.6
75.94	2.5101E+5	4.5453	1.4838	+180.6
76.14	2.5201E+5	4.5439	1.4933	-178.8
76.34	2.5301E+5	4.5425	1.5002	+179.1
76.54	2.5401E+5	4.5439	1.5100	-178.8
76.74	2.5501E+5	4.5439	1.5173	-179.4
76.96	2.5601E+5	4.5439	1.5257	+180.1
77.16	2.5701E+5	4.5382	1.5317	-179.5
77.37	2.5801E+5	4.5467	1.5422	+179.8
77.61	2.5901E+5	4.5425	1.5496	+180.6
77.82	2.6001E+5	4.5410	1.5572	-179.3
78.02	2.6101E+5	4.5439	1.5643	+179.3
78.22	2.6201E+5	4.5425	1.5719	-178.7
78.42	2.6301E+5	4.5467	1.5829	+179.0
78.62	2.6401E+5	4.5453	1.5935	-178.9
78.82	2.6501E+5	4.5410	1.6024	+180.1
79.02	2.6601E+5	4.5425	1.6139	+179.3
79.22	2.6701E+5	4.5410	1.6266	+180.1
79.42	2.6801E+5	4.5467	1.6361	-179.6
79.62	2.6901E+5	4.5453	1.6497	-177.3
79.83	2.7001E+5	4.5481	1.6569	-178.1
80.03	2.7101E+5	4.5467	1.6705	+181.5
80.23	2.7201E+5	4.5481	1.6802	-177.5
80.43	2.7301E+5	4.5509	1.6937	-177.8
80.63	2.7401E+5	4.5439	1.7014	-177.6
80.85	2.7501E+5	4.5481	1.7169	-179.7
81.05	2.7601E+5	4.5481	1.7285	-177.5
81.25	2.7701E+5	4.5410	1.7378	-179.3
81.45	2.7801E+5	4.5453	1.7508	-178.4
81.65	2.7901E+5	4.5354	1.7628	+179.0
81.88	2.8001E+5	4.5481	1.7795	-177.5
82.11	2.8101E+5	4.5453	1.7905	-178.4
82.31	2.8201E+5	4.5481	1.8011	-180.0
82.51	2.8301E+5	4.5439	1.8142	-179.1
82.71	2.8401E+5	4.5453	1.8280	-180.6
82.91	2.8501E+5	4.5453	1.8410	-178.3
83.11	2.8601E+5	4.5439	1.8559	-178.5
83.31	2.8701E+5	4.5368	1.8668	-177.7
83.54	2.8801E+5	4.5439	1.8812	-177.4
83.78	2.8901E+5	4.5439	1.9003	-177.0
83.97	2.9001E+5	4.5495	1.9161	-176.6
84.17	2.9101E+5	4.5439	1.9297	-177.6
84.37	2.9201E+5	4.5410	1.9479	-176.8
84.57	2.9301E+5	4.5495	1.9682	-177.7
84.77	2.9401E+5	4.5467	1.9873	-177.5
84.97	2.9501E+5	4.5538	2.0056	-177.0
85.17	2.9601E+5	4.5467	2.0247	-176.6
85.37	2.9701E+5	4.5524	2.0438	-175.4
85.57	2.9801E+5	4.5467	2.0582	-177.1
85.77	2.9901E+5	4.5453	2.0771	-177.4
85.97	3.0001E+5	4.5467	2.0990	-176.7
86.17	3.0101E+5	4.5538	2.1270	-176.2
86.37	3.0201E+5	4.5495	2.1451	-176.4
86.57	3.0301E+5	4.5453	2.1640	-174.9
86.77	3.0401E+5	4.5439	2.1820	-177.0
86.97	3.0501E+5	4.5425	2.2103	-176.2
87.17	3.0601E+5	4.5495	2.2306	-173.9
87.37	3.0701E+5	4.5467	2.2545	-175.8
87.57	3.0801E+5	4.5481	2.2732	-176.3
87.78	3.0901E+5	4.5524	2.2960	-176.0
87.98	3.1001E+5	4.5410	2.3158	-176.9
88.20	3.1101E+5	4.5410	2.3356	-175.8
88.40	3.1201E+5	4.5580	2.3661	-174.9
88.60	3.1301E+5	4.5410	2.3837	-174.8
88.80	3.1401E+5	4.5425	2.4067	-176.0
89.00	3.1501E+5	4.5354	2.4313	-176.8
89.21	3.1601E+5	4.5368	2.4603	-174.1
89.39	3.1701E+5	4.5382	2.4856	-174.0
89.58	3.1801E+5	4.5439	2.5190	-173.8
89.80	3.1901E+5	4.5425	2.5437	-173.6
89.98	3.2001E+5	4.5594	2.5756	-174.2
90.18	3.2101E+5	4.5495	2.6099	-175.1
90.38	3.2201E+5	4.5509	2.6369	-172.4
90.56	3.2301E+5	4.5410	2.6638	-174.0
90.74	3.2401E+5	4.5453	2.6956	-172.6
90.92	3.2501E+5	4.5495	2.7434	-172.9
91.11	3.2601E+5	4.5396	2.7764	-173.0
91.33	3.2701E+5	4.5439	2.8272	-173.0
91.54	3.2801E+5	4.5453	2.8692	-173.7
91.72	3.2901E+5	4.5481	2.9052	-172.3
91.92	3.3001E+5	4.5382	2.9520	-171.9
92.14	3.3101E+5	4.5396	2.9942	-171.6
92.32	3.3201E+5	4.5509	3.0350	-173.3
92.54	3.3301E+5	4.5453	3.0751	-173.1
92.72	3.3401E+5	4.5481	3.1015	-170.6
92.91	3.3501E+5	4.5481	3.1519	-171.5
93.09	3.3601E+5	4.5524	3.2022	-170.6
93.29	3.3701E+5	4.5467	3.2574	-170.4
93.47	3.3801E+5	4.5509	3.3004	-171.1
93.65	3.3901E+5	4.5396	3.3474	-169.0
93.87	3.4001E+5	4.5368	3.3996	-169.9
94.05	3.4101E+5	4.5425	3.4599	-169.3
94.27	3.4201E+5	4.5509	3.5044	-168.5
94.45	3.4301E+5	4.5425	3.5627	-167.4
94.63	3.4401E+5	4.5439	3.6211	-167.0
94.82	3.4501E+5	4.5453	3.6811	-168.3
95.00	3.4601E+5	4.5396	3.7492	-168.5
95.22	3.4701E+5	4.5439	3.8113	-169.2
95.43	3.4801E+5	4.5425	3.8863	-168.1
95.62	3.4901E+5	4.5425	3.9636	-166.7
95.80	3.5001E+5	4.5382	4.0562	-168.1
96.01	3.5101E+5	4.5354	4.1455	-166.4
96.20	3.5201E+5	4.5495	4.2496	-166.1
96.41	3.5301E+5	4.5439	4.3272	-166.6
96.60	3.5401E+5	4.5382	4.4145	-166.0
96.81	3.5501E+5	4.5425	4.4927	-163.9
97.03	3.5601E+5	4.5311	4.5777	-165.0
97.25	3.5701E+5	4.5439	4.6867	-164.3
97.46	3.5801E+5	4.5354	4.7786	-163.4
97.68	3.5901E+5	4.5425	4.9031	-162.8
97.89	3.6001E+5	4.5311	5.0162	-163.0
98.11	3.6101E+5	4.5382	5.1378	-159.3
98.29	3.6201E+5	4.5326	5.2411	-160.3
98.48	3.6301E+5	4.5255	5.3684	-159.0
98.66	3.6401E+5	4.5283	5.4970	-157.9
98.84	3.6501E+5	4.5354	5.6554	-159.3
99.03	3.6601E+5	4.5326	5.8110	-157.5
99.21	3.6701E+5	4.5326	5.9722	-157.7
99.39	3.6801E+5	4.5311	6.1561	-157.1
99.57	3.6901E+5	4.5255	6.3399	-156.4
99.77	3.7001E+5	4.5283	6.5308	-153.5
99.96	3.7101E+5	4.5255	6.7048	-152.4
100.16	3.7201E+5	4.5212	6.8858	-152.3
100.36	3.7301E+5	4.5170	7.0739	-150.0
100.56	3.7401E+5	4.5170	7.2889	-148.8
100.76	3.7501E+5	4.5142	7.5024	-148.3
100.96	3.7601E+5	4.5099	7.7442	-146.9
101.19	3.7701E+5	4.5126	8.0200	-143.9
101.42	3.7801E+5	4.5085	8.3297	-144.3
101.65	3.7901E+5	4.5033	8.6267	-140.7
101.85	3.8001E+5	4.5060	8.8572	-138.1
102.05	3.8101E+5	4.5061	9.1344	-136.8
102.25	3.8201E+5	4.5029	9.4385	-135.2
102.45	3.8301E+5	4.4976	9.7199	-133.1
102.65	3.8401E+5	4.4893	10.0041	-131.1
102.85	3.8501E+5	4.4884	10.2488	-127.2
103.05	3.8601E+5	4.4850	10.5543	-124.8
103.25	3.8701E+5	4.4865	10.8230	-123.0
103.45	3.8801E+5	4.4818	11.0832	-118.2
103.67	3.8901E+5	4.4828	11.3575	-116.3
103.87	3.9001E+5	4.4790	11.6050	-110.6
104.07	3.9101E+5	4.4812	11.7832	-106.1
104.27	3.9201E+5	4.4744	11.9020	-102.1
104.47	3.9301E+5	4.4736	11.9883	-99.4
104.66	3.9401E+5	4.4743	11.9784	-94.8
104.86	3.9501E+5	4.4794	11.9671	-90.7
105.05	3.9601E+5	4.4784	11.8752	-87.4
105.25	3.9701E+5	4.4740	11.7507	-82.7
105.45	3.9801E+5	4.4787	11.5867	-80.3
105.65	3.9901E+5	4.4747	11.3618	-78.1
105.85	4.0001E+5	4.4843	11.0832	-72.4
106.06	4.0101E+5	4.4807	10.7890	-69.9
106.28	4.0201E+5	4.4832	10.4411	-67.3
106.51	4.0301E+5	4.4795	10.1484	-65.2
106.74	4.0401E+5	4.4856	9.8613	-63.7
106.98	4.0501E+5	4.4857	9.5785	-60.2
107.18	4.0601E+5	4.4867	9.2829	-57.5
107.38	4.0701E+5	4.4938	8.9902	-56.5
107.58	4.0801E+5	4.4927	8.6903	-52.2
107.78	4.0901E+5	4.4908	8.4033	-49.9
107.97	4.1001E+5	4.4999	8.1614	-49.7
108.17	4.1101E+5	4.4955	7.8913	-48.3
108.37	4.1201E+5	4.4983	7.5887	-44.9
108.57	4.1301E+5	4.5014	7.2917	-44.7
108.77	4.1401E+5	4.5064	7.0555	-40.1
108.97	4.1501E+5	4.5057	6.8490	-41.6
109.17	4.1601E+5	4.5061	6.6426	-38.9
109.37	4.1701E+5	4.5084	6.4488	-39.3
109.57	4.1801E+5	4.5106	6.2621	-37.2
109.77	4.1901E+5	4.5139	6.0783	-37.3
109.99	4.2001E+5	4.5142	5.9043	-34.3
110.19	4.2101E+5	4.5113	5.7106	-35.0
110.42	4.2201E+5	4.5096	5.5366	-33.4
110.62	4.2301E+5	4.5096	5.3726	-31.9
110.82	4.2401E+5	4.5146	5.2156	-34.1
111.03	4.2501E+5	4.5142	5.0869	-32.6
111.23	4.2601E+5	4.5128	4.9554	-31.4
111.43	4.2701E+5	4.5113	4.8352	-29.7
111.67	4.2801E+5	4.5159	4.7178	-30.4
111.90	4.2901E+5	4.5227	4.6089	-29.4
112.10	4.3001E+5	4.5184	4.4944	-28.4
112.30	4.3101E+5	4.5198	4.3715	-27.4
112.50	4.3201E+5	4.5227	4.2803	-26.4
112.70	4.3301E+5	4.5198	4.1977	-27.8
112.90	4.3401E+5	4.5283	4.1080	-25.4
113.10	4.3501E+5	4.5212	4.0077	-26.2
113.30	4.3601E+5	4.5241	3.9048	-27.4
113.50	4.3701E+5	4.5227	3.8045	-25.6
113.70	4.3801E+5	4.5283	3.7202	-22.6
113.91	4.3901E+5	4.5269	3.6284	-24.1
114.11	4.4001E+5	4.5283	3.5647	-24.0
114.31	4.4101E+5	4.5269	3.4989	-23.4
114.51	4.4201E+5	4.5184	3.4336	-21.2
114.71	4.4301E+5	4.5297	3.3650	-21.7
114.91	4.4401E+5	4.5269	3.3110	-21.6
115.11	4.4501E+5	4.5227	3.2504	-20.6
115.31	4.4601E+5	4.5297	3.1947	-22.4
115.53	4.4701E+5	4.5283	3.1315	-20.8
115.74	4.4801E+5	4.5241	3.0710	-21.0
115.94	4.4901E+5	4.5198	3.0189	-20.5
116.14	4.5001E+5	4.5269	2.9829	-21.0
116.34	4.5101E+5	4.5297	2.9319	-19.4
116.54	4.5201E+5	4.5269	2.8837	-18.2
116.74	4.5301E+5	4.5354	2.8339	-19.0
116.94	4.5401E+5	4.5269	2.7720	-17.6
117.14	4.5501E+5	4.5283	2.7208	-19.3
117.34	4.5601E+5	4.5255	2.6747	-18.1
117.54	4.5701E+5	4.5255	2.6228	-17.9
117.74	4.5801E+5	4.5326	2.5805	-18.0
117.94	4.5901E+5	4.5354	2.5460	-17.8
118.14	4.6001E+5	4.5269	2.5066	-18.1
118.34	4.6101E+5	4.5326	2.4760	-16.4
118.53	4.6201E+5	4.5297	2.4354	-17.8
118.72	4.6301E+5	4.5311	2.3995	-15.9
118.92	4.6401E+5	4.5396	2.3613	-17.4
119.12	4.6501E+5	4.5269	2.3360	-16.3
119.32	4.6601E+5	4.5326	2.3009	-17.4
119.52	4.6701E+5	4.5283	2.2807	-16.6
119.72	4.6801E+5	4.5354	2.2469	-17.5
119.92	4.6901E+5	4.5269	2.2229	-15.9
120.11	4.7001E+5	4.5326	2.1925	-16.4
120.33	4.7101E+5	4.5269	2.1530	-15.9
120.53	4.7201E+5	4.5311	2.1251	-16.0
120.73	4.7301E+5	4.5340	2.0949	-17.5
120.93	4.7401E+5	4.5354	2.0751	-15.5
121.13	4.7501E+5	4.5340	2.0486	-16.0
121.33	4.7601E+5	4.5311	2.0225	-15.4
121.53	4.7701E+5	4.5382	1.9966	-13.5
121.73	4.7801E+5	4.5311	1.9689	-15.5
121.93	4.7901E+5	4.5340	1.9325	-15.7
122.13	4.8001E+5	4.5340	1.9146	-14.8
122.33	4.8101E+5	4.5311	1.8924	-15.3
122.53	4.8201E+5	4.5255	1.8628	-15.2
122.73	4.8301E+5	4.5396	1.8474	-15.8
122.94	4.8401E+5	4.5368	1.8218	-13.3
123.14	4.8501E+5	4.5241	1.7987	-14.2
123.34	4.8601E+5	4.5311	1.7792	-14.6
123.54	4.8701E+5	4.5297	1.7719	-14.6
123.74	4.8801E+5	4.5340	1.7402	-14.3
123.96	4.8901E+5	4.5311	1.7222	-13.7
124.16	4.9001E+5	4.5340	1.7137	-14.8
124.36	4.9101E+5	4.5283	1.6978	-14.9
124.56	4.9201E+5	4.5368	1.6758	-12.4
124.75	4.9301E+5	4.5311	1.6534	-12.2
124.95	4.9401E+5	4.5425	1.6396	-13.3
125.19	4.9501E+5	4.5396	1.6265	-14.7
125.40	4.9601E+5	4.5311	1.6095	-12.1
125.60	4.9701E+5	4.5382	1.5897	-12.4
125.80	4.9801E+5	4.5368	1.5668	-12.1
126.00	4.9901E+5	4.5382	1.5614	-14.1
126.20	5.0001E+5	4.5382	1.5388	-12.7
126.40	5.0101E+5	4.5297	1.5264	-11.0
126.58	5.0201E+5	4.5340	1.5149	-13.1
126.78	5.0301E+5	4.5326	1.5027	-12.0
126.98	5.0401E+5	4.5368	1.4892	-13.3
127.18	5.0501E+5	4.5396	1.4793	-11.9
127.38	5.0601E+5	4.5396	1.4600	-12.5
127.58	5.0701E+5	4.5410	1.4480	-13.0
127.81	5.0801E+5	4.5340	1.4383	-11.0
128.03	5.0901E+5	4.5340	1.4189	-10.4
128.23	5.1001E+5	4.5340	1.4128	-12.3
128.43	5.1101E+5	4.5410	1.3919	-10.9
128.65	5.1201E+5	4.5326	1.3724	-14.2
128.86	5.1301E+5	4.5340	1.3565	-11.5
129.06	5.1401E+5	4.5340	1.3410	-11.5
129.26	5.1501E+5	4.5410	1.3282	-13.2
129.48	5.1601E+5	4.5340	1.3168	-12.2
129.71	5.1701E+5	4.5340	1.3007	-13.1
129.91	5.1801E+5	4.5368	1.2924	-11.0
130.11	5.1901E+5	4.5354	1.2811	-11.1
130.31	5.2001E+5	4.5326	1.2745	-10.7
130.53	5.2101E+5	4.5340	1.2620	-11.1
130.73	5.2201E+5	4.5382	1.2571	-10.7
130.93	5.2301E+5	4.5410	1.2405	-13.1
131.16	5.2401E+5	4.5410	1.2318	-12.4
131.36	5.2501E+5	4.5410	1.2257	-12.4
131.56	5.2601E+5	4.5354	1.2203	-11.4
131.79	5.2701E+5	4.5340	1.2036	-13.1
131.99	5.2801E+5	4.5368	1.1956	-10.6
132.19	5.2901E+5	4.5340	1.1828	-11.6
132.39	5.3001E+5	4.5410	1.1787	-11.0
132.62	5.3101E+5	4.5326	1.1778	-11.0
132.84	5.3201E+5	4.5340	1.1656	-11.0
133.04	5.3301E+5	4.5326	1.1506	-13.2
133.24	5.3401E+5	4.5382	1.1447	-11.2
133.44	5.3501E+5	4.5326	1.1302	-11.9
133.64	5.3601E+5	4.5354	1.1223	-13.5
133.84	5.3701E+5	4.5354	1.1110	-10.8
134.04	5.3801E+5	4.5297	1.1061	-10.8
134.24	5.3901E+5	4.5396	1.1008	-10.6
134.44	5.4001E+5	4.5396	1.0928	-10.5
134.63	5.4101E+5	4.5326	1.0766	-10.4
134.83	5.4201E+5	4.5311	1.0796	-12.1
135.03	5.4301E+5	4.5311	1.0694	-10.3
135.23	5.4401E+5	4.5311	1.0633	-10.7
135.43	5.4501E+5	4.5326	1.0559	-9.4
135.63	5.4601E+5	4.5269	1.0458	-12.6
135.83	5.4701E+5	4.5297	1.0387	-10.4
136.03	5.4801E+5	4.5368	1.0382	-10.8
136.22	5.4901E+5	4.5311	1.0293	-9.7
136.41	5.5001E+5	4.5326	1.0170	-10.6
136.61	5.5101E+5	4.5354	1.0068	-8.9
136.81	5.5201E+5	4.5425	1.0027	-10.5
137.05	5.5301E+5	4.5368	0.9935	-11.9
137.28	5.5401E+5	4.5354	0.9849	-10.4
137.48	5.5501E+5	4.5354	0.9697	-9.1
137.68	5.5601E+5	4.5354	0.9641	-9.4
137.88	5.5701E+5	4.5311	0.9608	-10.0
138.08	5.5801E+5	4.5382	0.9554	-11.7
138.28	5.5901E+5	4.5354	0.9470	-10.7
138.47	5.6001E+5	4.5311	0.9427	-12.0
138.66	5.6101E+5	4.5354	0.9342	-9.8
138.86	5.6201E+5	4.5326	0.9257	-8.4
139.06	5.6301E+5	4.5326	0.9236	-10.7
139.24	5.6401E+5	4.5340	0.9154	-11.5
139.44	5.6501E+5	4.5340	0.9089	-10.1
139.64	5.6601E+5	4.5340	0.9050	-10.7
139.84	5.6701E+5	4.5340	0.8942	-9.6
140.04	5.6801E+5	4.5326	0.8919	-10.1
140.24	5.6901E+5	4.5311	0.8888	-10.9
140.44	5.7001E+5	4.5311	0.8833	-12.3
140.64	5.7101E+5	4.5354	0.8734	-11.4
140.84	5.7201E+5	4.5340	0.8712	-10.5
141.04	5.7301E+5	4.5326	0.8679	-9.3
141.24	5.7401E+5	4.5283	0.8628	-8.6
141.44	5.7501E+5	4.5396	0.8550	-9.1
141.64	5.7601E+5	4.5326	0.8543	-7.2
141.82	5.7701E+5	4.5326	0.8471	-11.6
142.02	5.7801E+5	4.5340	0.8405	-9.0
142.22	5.7901E+5	4.5326	0.8366	-9.7
142.42	5.8001E+5	4.5326	0.8331	-9.6
142.62	5.8101E+5	4.5354	0.8296	-9.3
142.82	5.8201E+5	4.5396	0.8243	-9.3
143.02	5.8301E+5	4.5326	0.8202	-8.6
143.22	5.8401E+5	4.5368	0.8143	-8.5
143.42	5.8501E+5	4.5410	0.8085	-10.4
143.63	5.8601E+5	4.5396	0.8050	-9.8
143.86	5.8701E+5	4.5340	0.7987	-8.1
144.06	5.8801E+5	4.5340	0.7938	-10.8
144.26	5.8901E+5	4.5326	0.7925	-10.4
144.46	5.9001E+5	4.5382	0.7853	-12.4
144.66	5.9101E+5	4.5340	0.7822	-10.3
144.86	5.9201E+5	4.5340	0.7760	-10.6
145.06	5.9301E+5	4.5326	0.7727	-9.0
145.26	5.9401E+5	4.5382	0.7696	-8.5
145.46	5.9501E+5	4.5326	0.7696	-6.7
145.64	5.9601E+5	4.5311	0.7584	-9.7
145.84	5.9701E+5	4.5297	0.7570	-11.5
146.03	5.9801E+5	4.5297	0.7512	-11.8
146.23	5.9901E+5	4.5283	0.7490	-8.6
146.43	6.0001E+5	4.5354	0.7413	-7.2
146.62	6.0101E+5	4.5368	0.7384	-10.0
146.82	6.0201E+5	4.5368	0.7328	-9.6
147.03	6.0301E+5	4.5340	0.7282	-10.1
147.24	6.0401E+5	4.5297	0.7249	-8.2
147.44	6.0501E+5	4.5269	0.7193	-9.6
147.64	6.0601E+5	4.5326	0.7179	-8.7
147.82	6.0701E+5	4.5340	0.7135	-7.5
148.02	6.0801E+5	4.5297	0.7126	-7.7
148.21	6.0901E+5	4.5311	0.7046	-8.0
148.41	6.1001E+5	4.5283	0.6988	-9.3
148.60	6.1101E+5	4.5283	0.6968	-8.4
148.80	6.1201E+5	4.5354	0.6928	-10.3
149.00	6.1301E+5	4.5297	0.6831	-9.6
149.20	6.1401E+5	4.5269	0.6819	-8.2
149.39	6.1501E+5	4.5283	0.6809	-7.9
149.57	6.1601E+5	4.5340	0.6800	-8.2
149.77	6.1701E+5	4.5297	0.6809	-8.9
149.97	6.1801E+5	4.5283	0.6708	-7.9
150.17	6.1901E+5	4.5297	0.6689	-9.8
150.37	6.2001E+5	4.5212	0.6645	-8.6
150.57	6.2101E+5	4.5340	0.6582	-8.4
150.77	6.2201E+5	4.5354	0.6599	-8.2
150.95	6.2301E+5	4.5297	0.6548	-9.0
151.15	6.2401E+5	4.5297	0.6503	-8.9
151.35	6.2501E+5	4.5297	0.6497	-8.2
151.53	6.2601E+5	4.5326	0.6470	-8.6
151.73	6.2701E+5	4.5283	0.6433	-8.7
151.93	6.2801E+5	4.5283	0.6395	-9.3
152.13	6.2901E+5	4.5241	0.6389	-9.1
152.31	6.3001E+5	4.5198	0.6299	-5.6
152.51	6.3101E+5	4.5311	0.6302	-6.7
152.69	6.3201E+5	4.5283	0.6273	-9.1
152.90	6.3301E+5	4.5241	0.6244	-8.6
153.09	6.3401E+5	4.5241	0.6232	-8.2
153.29	6.3501E+5	4.5241	0.6190	-7.8
153.49	6.3601E+5	4.5212	0.6182	-8.3
153.68	6.3701E+5	4.5269	0.6128	-8.0
153.88	6.3801E+5	4.5269	0.6112	-8.2
154.08	6.3901E+5	4.5311	0.6074	-7.5
154.28	6.4001E+5	4.5227	0.6049	-8.4
154.48	6.4101E+5	4.5156	0.6034	-9.4
154.68	6.4201E+5	4.5241	0.6013	-7.2
154.86	6.4301E+5	4.5241	0.5967	-8.6
155.06	6.4401E+5	4.5297	0.5951	-8.6
155.26	6.4501E+5	4.5326	0.5913	-6.5
155.46	6.4601E+5	4.5241	0.5877	-10.9
155.66	6.4701E+5	4.5255	0.5877	-10.0
155.84	6.4801E+5	4.5269	0.5821	-7.0
156.04	6.4901E+5	4.5241	0.5794	-8.8
156.24	6.5001E+5	4.5227	0.5817	-6.7
156.44	6.5101E+5	4.5212	0.5747	-8.2
156.64	6.5201E+5	4.5227	0.5733	-9.6
156.82	6.5301E+5	4.5198	0.5711	-8.7
157.02	6.5401E+5	4.5227	0.5660	-10.8
157.22	6.5501E+5	4.5227	0.5627	-6.9
157.42	6.5601E+5	4.5212	0.5605	-8.9
157.62	6.5701E+5	4.5227	0.5582	-10.3
157.82	6.5801E+5	4.5212	0.5541	-11.0
158.02	6.5901E+5	4.5170	0.5521	-7.7
158.22	6.6001E+5	4.5184	0.5517	-10.1
158.40	6.6101E+5	4.5255	0.5497	-8.0
158.60	6.6201E+5	4.5241	0.5456	-7.4
158.80	6.6301E+5	4.5212	0.5442	-7.4
159.00	6.6401E+5	4.5269	0.5424	-7.6
159.18	6.6501E+5	4.5269	0.5405	-7.6
159.38	6.6601E+5	4.5241	0.5364	-7.3
159.58	6.6701E+5	4.5241	0.5351	-8.0
159.78	6.6801E+5	4.5241	0.5350	-8.2
159.96	6.6901E+5	4.5227	0.5313	-6.5
160.16	6.7001E+5	4.5198	0.5262	-9.0
160.36	6.7101E+5	4.5170	0.5255	-7.3
160.55	6.7201E+5	4.5255	0.5251	-8.6
160.73	6.7301E+5	4.5198	0.5257	-6.1
160.91	6.7401E+5	4.5255	0.5237	-7.8
161.11	6.7501E+5	4.5227	0.5224	-8.3
161.29	6.7601E+5	4.5255	0.5193	-9.5
161.49	6.7701E+5	4.5283	0.5160	-10.3
161.69	6.7801E+5	4.5241	0.5168	-6.9
161.89	6.7901E+5	4.5269	0.5098	-7.9
162.09	6.8001E+5	4.5241	0.5059	-8.0
162.29	6.8101E+5	4.5170	0.5077	-8.0
162.47	6.8201E+5	4.5283	0.5073	-6.5
162.66	6.8301E+5	4.5241	0.5026	-9.2
162.86	6.8401E+5	4.5297	0.5009	-6.5
163.06	6.8501E+5	4.5227	0.4992	-8.4
163.26	6.8601E+5	4.5255	0.4999	-10.1
163.46	6.8701E+5	4.5255	0.4946	-7.3
163.66	6.8801E+5	4.5156	0.4931	-9.4
163.86	6.8901E+5	4.5255	0.4904	-7.2
164.06	6.9001E+5	4.5184	0.4872	-8.6
164.25	6.9101E+5	4.5227	0.4866	-8.4
164.44	6.9201E+5	4.5241	0.4824	-7.6
164.64	6.9301E+5	4.5227	0.4803	-7.5
164.84	6.9401E+5	4.5255	0.4793	-6.9
165.04	6.9501E+5	4.5241	0.4755	-6.0
165.24	6.9601E+5	4.5269	0.4708	-7.5
165.44	6.9701E+5	4.5241	0.4731	-9.8
165.63	6.9801E+5	4.5255	0.4702	-7.3
165.84	6.9901E+5	4.5255	0.4685	-7.6
166.02	7.0001E+5	4.5311	0.4661	-7.2
166.22	7.0101E+5	4.5170	0.4629	-8.6
166.42	7.0201E+5	4.5255	0.4623	-7.9
166.62	7.0301E+5	4.5269	0.4606	-8.3
166.80	7.0401E+5	4.5212	0.4583	-6.1
167.00	7.0501E+5	4.5212	0.4576	-8.0
167.18	7.0601E+5	4.5269	0.4545	-8.3
167.38	7.0701E+5	4.5184	0.4535	-6.9
167.58	7.0801E+5	4.5184	0.4525	-7.7
167.76	7.0901E+5	4.5198	0.4537	-9.1
167.95	7.1001E+5	4.5212	0.4489	-8.0
168.15	7.1101E+5	4.5198	0.4477	-9.9
168.35	7.1201E+5	4.5241	0.4495	-8.1
168.55	7.1301E+5	4.5128	0.4404	-8.4
168.75	7.1401E+5	4.5198	0.4434	-8.7
168.94	7.1501E+5	4.5212	0.4411	-8.3
169.14	7.1601E+5	4.5184	0.4370	-8.2
169.34	7.1701E+5	4.5156	0.4377	-10.1
169.53	7.1801E+5	4.5128	0.4373	-6.6
169.71	7.1901E+5	4.5241	0.4359	-7.3
169.91	7.2001E+5	4.5184	0.4337	-7.0
170.11	7.2101E+5	4.5241	0.4309	-8.2
170.31	7.2201E+5	4.5212	0.4299	-8.7
170.49	7.2301E+5	4.5269	0.4276	-6.0
170.69	7.2401E+5	4.5255	0.4294	-8.4
170.89	7.2501E+5	4.5241	0.4277	-7.3
171.09	7.2601E+5	4.5227	0.4233	-7.3
171.29	7.2701E+5	4.5269	0.4219	-7.2
171.49	7.2801E+5	4.5142	0.4209	-5.7
171.67	7.2901E+5	4.5170	0.4193	-7.0
171.87	7.3001E+5	4.5184	0.4177	-4.8
172.06	7.3101E+5	4.5156	0.4167	-7.5
172.25	7.3201E+5	4.5227	0.4171	-7.6
172.45	7.3301E+5	4.5227	0.4147	-9.0
172.64	7.3401E+5	4.5255	0.4130	-7.5
172.84	7.3501E+5	4.5212	0.4121	-9.5
173.02	7.3601E+5	4.5156	0.4108	-5.7
173.22	7.3701E+5	4.5184	0.4097	-7.3
173.40	7.3801E+5	4.5142	0.4077	-6.1
173.60	7.3901E+5	4.5212	0.4072	-5.9
173.78	7.4001E+5	4.5227	0.4051	-7.1
173.98	7.4101E+5	4.5142	0.4034	-8.2
174.17	7.4201E+5	4.5212	0.4026	-6.8
174.37	7.4301E+5	4.5269	0.4042	-8.3
174.57	7.4401E+5	4.5227	0.4002	-8.4
174.77	7.4501E+5	4.5156	0.4007	-7.0
174.97	7.4601E+5	4.5212	0.3980	-6.8
175.16	7.4701E+5	4.5212	0.3960	-5.1
175.36	7.4801E+5	4.5212	0.3986	-8.2
175.56	7.4901E+5	4.5241	0.3935	-6.8
175.76	7.5001E+5	4.5099	0.3932	-9.2
175.96	7.5101E+5	4.5169	0.3914	-6.2
176.18	7.5201E+5	4.5142	0.3919	-6.5
176.38	7.5301E+5	4.5212	0.3897	-7.0
176.58	7.5401E+5	4.5241	0.3883	-4.6
176.78	7.5501E+5	4.5184	0.3872	-7.3
176.96	7.5601E+5	4.5184	0.3843	-7.4
177.16	7.5701E+5	4.5198	0.3839	-7.5
177.34	7.5801E+5	4.5227	0.3833	-8.6
177.53	7.5901E+5	4.5212	0.3807	-2.9
177.73	7.6001E+5	4.5184	0.3817	-6.8
177.91	7.6101E+5	4.5212	0.3791	-6.3
178.11	7.6201E+5	4.5170	0.3792	-9.3
178.29	7.6301E+5	4.5156	0.3781	-7.0
178.47	7.6401E+5	4.5128	0.3753	-7.1
178.68	7.6501E+5	4.5198	0.3733	-6.2
178.87	7.6601E+5	4.5212	0.3727	-7.7
179.06	7.6701E+5	4.5170	0.3693	-5.9
179.26	7.6801E+5	4.5269	0.3723	-7.2
179.46	7.6901E+5	4.5241	0.3683	-8.7
179.66	7.7001E+5	4.5156	0.3693	-4.0
179.85	7.7101E+5	4.5128	0.3664	-10.1
180.05	7.7201E+5	4.5212	0.3667	-5.7
180.24	7.7301E+5	4.5113	0.3649	-4.2
180.47	7.7401E+5	4.5236	0.3644	-7.4
180.67	7.7501E+5	4.5156	0.3606	-5.2
180.87	7.7601E+5	4.5184	0.3596	-6.7
181.05	7.7701E+5	4.5128	0.3588	-6.6
181.24	7.7801E+5	4.5212	0.3595	-7.6
181.42	7.7901E+5	4.5156	0.3561	-6.5
181.62	7.8001E+5	4.5156	0.3553	-4.8
181.80	7.8101E+5	4.5255	0.3552	-6.8
181.98	7.8201E+5	4.5113	0.3520	-8.0
182.20	7.8301E+5	4.5193	0.3526	-6.0
182.42	7.8401E+5	4.5170	0.3513	-8.6
182.62	7.8501E+5	4.5156	0.3500	-6.5
182.80	7.8601E+5	4.5142	0.3487	-7.2
183.00	7.8701E+5	4.5156	0.3485	-6.7
183.18	7.8801E+5	4.5212	0.3477	-5.0
183.36	7.8901E+5	4.5099	0.3469	-6.2
183.56	7.9001E+5	4.5203	0.3456	-7.4
183.76	7.9101E+5	4.5269	0.3444	-6.4
183.95	7.9201E+5	4.5241	0.3435	-8.0
184.15	7.9301E+5	4.5184	0.3424	-6.4
184.33	7.9401E+5	4.5071	0.3404	-8.7
184.54	7.9501E+5	4.5159	0.3392	-8.6
184.74	7.9601E+5	4.5099	0.3378	-7.5
184.96	7.9701E+5	4.5200	0.3370	-9.0
185.16	7.9801E+5	4.5156	0.3366	-6.9
185.34	7.9901E+5	4.5142	0.3352	-5.7
185.53	8.0001E+5	4.5099	0.3327	-6.2
185.74	8.0101E+5	4.5190	0.3308	-6.2
185.96	8.0201E+5	4.5142	0.3308	-6.8
186.14	8.0301E+5	4.5156	0.3306	-6.4
186.32	8.0401E+5	4.5113	0.3298	-5.8
186.54	8.0501E+5	4.5180	0.3285	-5.8
186.76	8.0601E+5	4.5156	0.3296	-8.4
186.96	8.0701E+5	4.5184	0.3280	-5.8
187.14	8.0801E+5	4.5184	0.3259	-6.7
187.34	8.0901E+5	4.5156	0.3251	-7.7
187.52	8.1001E+5	4.5128	0.3248	-5.2
187.71	8.1101E+5	4.5142	0.3226	-3.8
187.90	8.1201E+5	4.5113	0.3217	-6.9
188.10	8.1301E+5	4.5054	0.3223	-8.2
188.29	8.1401E+5	4.5116	0.3223	-1.9
188.49	8.1501E+5	4.5198	0.3207	-9.2
188.69	8.1601E+5	4.5212	0.3199	-9.0
188.87	8.1701E+5	4.5142	0.3197	-6.0
189.05	8.1801E+5	4.5142	0.3177	-7.8
189.23	8.1901E+5	4.5113	0.3168	-6.4
189.43	8.2001E+5	4.5181	0.3159	-5.0
189.63	8.2101E+5	4.5057	0.3147	-4.7
189.85	8.2201E+5	4.5132	0.3142	-6.1
190.05	8.2301E+5	4.5156	0.3136	-7.9
190.23	8.2401E+5	4.5142	0.3122	-9.0
190.43	8.2501E+5	4.5085	0.3118	-4.5
190.63	8.2601E+5	4.5136	0.3107	-8.3
190.81	8.2701E+5	4.5142	0.3119	-5.8
191.00	8.2801E+5	4.5085	0.3097	-3.1
191.21	8.2901E+5	4.5043	0.3083	-6.7
191.40	8.3001E+5	4.5208	0.3071	-4.8
191.60	8.3101E+5	4.5085	0.3056	-4.9
191.81	8.3201E+5	4.5129	0.3062	-5.8
192.03	8.3301E+5	4.5071	0.3052	-6.6
192.23	8.3401E+5	4.5088	0.3050	-9.2
192.39	8.3501E+5	4.5079	0.3036	-9.0
192.59	8.3601E+5	4.5181	0.3034	-6.3
192.79	8.3701E+5	4.5014	0.3017	-5.9
192.99	8.3801E+5	4.5167	0.3018	-6.5
193.19	8.3901E+5	4.5128	0.3007	-4.5
193.39	8.4001E+5	4.5099	0.3000	-5.6
193.59	8.4101E+5	4.5119	0.2995	-8.0
193.78	8.4201E+5	4.5142	0.2984	-6.5
193.97	8.4301E+5	4.5057	0.2964	-7.3
194.18	8.4401E+5	4.5118	0.2971	-6.7
194.37	8.4501E+5	4.5085	0.2955	-5.9
194.59	8.4601E+5	4.5119	0.2944	-5.0
194.79	8.4701E+5	4.5212	0.2945	-6.4
194.96	8.4801E+5	4.5057	0.2928	-7.5
195.16	8.4901E+5	4.5085	0.2938	-2.6
195.34	8.5001E+5	4.5070	0.2920	-5.6
195.54	8.5101E+5	4.5108	0.2918	-3.1
195.72	8.5201E+5	4.5079	0.2906	-4.9
195.90	8.5301E+5	4.5092	0.2900	-6.9
196.07	8.5401E+5	4.5048	0.2891	-7.5
196.27	8.5501E+5	4.5033	0.2886	-6.0
196.45	8.5601E+5	4.5031	0.2874	-7.2
196.63	8.5701E+5	4.5082	0.2880	-7.7
196.82	8.5801E+5	4.5031	0.2859	-7.6
197.02	8.5901E+5	4.5092	0.2860	-4.6
197.19	8.6001E+5	4.5111	0.2849	-5.6
197.37	8.6101E+5	4.5104	0.2848	-4.8
197.55	8.6201E+5	4.5126	0.2834	-5.6
197.77	8.6301E+5	4.5085	0.2819	-4.2
197.98	8.6401E+5	4.5113	0.2823	-8.1
198.16	8.6501E+5	4.5092	0.2816	-6.2
198.37	8.6601E+5	4.5089	0.2813	-4.4
198.55	8.6701E+5	4.5104	0.2809	-5.3
198.73	8.6801E+5	4.5115	0.2788	-5.5
198.95	8.6901E+5	4.5057	0.2792	-5.2
199.13	8.7001E+5	4.5095	0.2779	-6.4
199.33	8.7101E+5	4.5174	0.2760	-2.5
199.55	8.7201E+5	4.5170	0.2762	-4.1
199.71	8.7301E+5	4.5085	0.2743	-6.1
199.93	8.7401E+5	4.5146	0.2757	-5.7
200.13	8.7501E+5	4.5156	0.2739	-8.5
200.33	8.7601E+5	4.5113	0.2730	-8.9
200.54	8.7701E+5	4.5128	0.2727	-5.7
200.74	8.7801E+5	4.5057	0.2737	-5.1
200.94	8.7901E+5	4.5091	0.2709	-4.7
201.14	8.8001E+5	4.4969	0.2707	-7.3
201.34	8.8101E+5	4.5180	0.2716	-4.3
201.56	8.8201E+5	4.5128	0.2708	-9.7
201.76	8.8301E+5	4.5043	0.2704	-6.5
201.94	8.8401E+5	4.5152	0.2689	-8.6
202.16	8.8501E+5	4.5099	0.2704	-8.1
202.37	8.8601E+5	4.5094	0.2678	-6.7
202.57	8.8701E+5	4.5085	0.2677	-5.3
202.74	8.8801E+5	4.4980	0.2658	-6.9
202.94	8.8901E+5	4.5112	0.2670	-2.4
203.14	8.9001E+5	4.5070	0.2650	-7.5
203.34	8.9101E+5	4.5112	0.2656	-9.6
203.52	8.9201E+5	4.5089	0.2649	-8.2
203.72	8.9301E+5	4.5065	0.2634	-6.6
203.92	8.9401E+5	4.5092	0.2630	-4.2
204.10	8.9501E+5	4.5067	0.2628	-5.3
204.27	8.9601E+5	4.5075	0.2618	-8.1
204.47	8.9701E+5	4.5065	0.2602	-9.4
204.67	8.9801E+5	4.5075	0.2610	-8.1
204.87	8.9901E+5	4.4965	0.2607	-6.8
205.05	9.0001E+5	4.5088	0.2600	-6.5
205.23	9.0101E+5	4.5016	0.2579	-11.8
205.42	9.0201E+5	4.5120	0.2603	-4.2
205.63	9.0301E+5	4.5085	0.2579	-6.7
205.83	9.0401E+5	4.5060	0.2572	-9.1
206.02	9.0501E+5	4.5111	0.2572	-5.9
206.20	9.0601E+5	4.5044	0.2564	-5.9
206.38	9.0701E+5	4.5046	0.2549	-7.6
206.58	9.0801E+5	4.5037	0.2551	-8.0
206.76	9.0901E+5	4.5041	0.2529	-4.3
206.96	9.1001E+5	4.5108	0.2532	-4.1
207.13	9.1101E+5	4.5029	0.2516	-5.1
207.33	9.1201E+5	4.5021	0.2512	-10.0
207.51	9.1301E+5	4.5078	0.2513	-8.4
207.69	9.1401E+5	4.4969	0.2516	-4.8
207.86	9.1501E+5	4.5005	0.2489	-6.3
208.06	9.1601E+5	4.4971	0.2487	-7.3
208.24	9.1701E+5	4.5041	0.2490	-5.0
208.41	9.1801E+5	4.5101	0.2480	-6.3
208.61	9.1901E+5	4.5064	0.2468	-6.3
208.79	9.2001E+5	4.5058	0.2464	-5.8
208.99	9.2101E+5	4.5016	0.2450	-5.1
209.18	9.2201E+5	4.5000	0.2444	-10.5
209.36	9.2301E+5	4.5072	0.2437	-4.7
209.54	9.2401E+5	4.5088	0.2443	-3.7
209.71	9.2501E+5	4.5108	0.2445	-7.2
209.87	9.2601E+5	4.5044	0.2421	-6.5
210.06	9.2701E+5	4.5094	0.2420	-6.7
210.22	9.2801E+5	4.5085	0.2418	-4.7
210.41	9.2901E+5	4.5074	0.2411	-7.5
210.61	9.3001E+5	4.5019	0.2399	-7.2
210.79	9.3101E+5	4.5013	0.2409	-4.2
210.95	9.3201E+5	4.4965	0.2390	-6.1
211.15	9.3301E+5	4.4961	0.2393	-6.4
211.34	9.3401E+5	4.4891	0.2372	-4.7
211.52	9.3501E+5	4.5002	0.2370	-6.9
211.70	9.3601E+5	4.4965	0.2363	-7.9
211.90	9.3701E+5	4.4932	0.2368	-5.2
212.07	9.3801E+5	4.5061	0.2367	-9.0
212.25	9.3901E+5	4.5105	0.2353	-5.4
212.45	9.4001E+5	4.5089	0.2353	-3.5
212.62	9.4101E+5	4.5007	0.2348	-4.9
212.80	9.4201E+5	4.5027	0.2342	-7.6
212.98	9.4301E+5	4.5005	0.2328	-6.5
213.17	9.4401E+5	4.5033	0.2320	-5.3
213.37	9.4501E+5	4.5098	0.2319	-7.5
213.55	9.4601E+5	4.4972	0.2301	-6.8
213.73	9.4701E+5	4.5014	0.2299	-2.4
213.91	9.4801E+5	4.4948	0.2306	-8.9
214.10	9.4901E+5	4.5010	0.2310	-1.7
214.26	9.5001E+5	4.4927	0.2280	-1.9
214.46	9.5101E+5	4.5088	0.2291	-4.3
214.66	9.5201E+5	4.4988	0.2284	-5.3
214.85	9.5301E+5	4.4954	0.2277	-5.7
215.03	9.5401E+5	4.5029	0.2277	-5.8
215.19	9.5501E+5	4.4915	0.2252	-10.0
215.38	9.5601E+5	4.5000	0.2269	-5.9
215.58	9.5701E+5	4.4965	0.2262	-5.2
215.76	9.5801E+5	4.5021	0.2245	-6.5
215.94	9.5901E+5	4.5081	0.2246	-6.6
216.11	9.6001E+5	4.4956	0.2241	-5.9
216.31	9.6101E+5	4.5019	0.2241	-3.5
216.47	9.6201E+5	4.4996	0.2236	-5.9
216.66	9.6301E+5	4.5125	0.2241	-4.0
216.86	9.6401E+5	4.4958	0.2226	-8.5
217.06	9.6501E+5	4.4993	0.2237	-7.5
217.26	9.6601E+5	4.4921	0.2216	-10.2
217.46	9.6701E+5	4.4988	0.2209	-6.6
217.64	9.6801E+5	4.4988	0.2198	-8.0
217.84	9.6901E+5	4.5026	0.2211	-4.9
218.02	9.7001E+5	4.4954	0.2207	-8.0
218.21	9.7101E+5	4.4886	0.2197	-4.7
218.41	9.7201E+5	4.5027	0.2207	-8.1
218.59	9.7301E+5	4.4965	0.2193	-7.2
218.79	9.7401E+5	4.4989	0.2198	-4.7
218.97	9.7501E+5	4.5010	0.2195	-7.4
219.14	9.7601E+5	4.4997	0.2181	-4.0
219.34	9.7701E+5	4.5014	0.2180	-4.7
219.52	9.7801E+5	4.4958	0.2187	-5.5
219.70	9.7901E+5	4.4930	0.2169	-4.9
219.90	9.8001E+5	4.4944	0.2167	-9.7
220.07	9.8101E+5	4.4887	0.2159	-5.5
220.23	9.8201E+5	4.5014	0.2145	-6.9
220.43	9.8301E+5	4.4944	0.2145	-5.0
220.60	9.8401E+5	4.5029	0.2144	-6.2
220.78	9.8501E+5	4.4986	0.2136	-5.7
220.97	9.8601E+5	4.4958	0.2134	-6.2
221.13	9.8701E+5	4.4986	0.2132	-7.6
221.32	9.8801E+5	4.4986	0.2137	-8.5
221.48	9.8901E+5	4.4915	0.2133	-9.4
221.66	9.9001E+5	4.4958	0.2111	-3.6
221.86	9.9101E+5	4.4887	0.2127	-0.4
222.05	9.9201E+5	4.4901	0.2113	-5.2
222.25	9.9301E+5	4.4915	0.2099	-6.2
222.43	9.9401E+5	4.5029	0.2112	-3.2
222.63	9.9501E+5	4.4915	0.2104	-4.1
222.81	9.9601E+5	4.4901	0.2094	-6.7
223.00	9.9701E+5	4.4915	0.2104	-4.7
223.19	9.9801E+5	4.4873	0.2097	-2.7
223.38	9.9901E+5	4.4930	0.2097	-7.0
223.56	1.0000E+6	4.4972	0.2079	-6.1
223.76	1.0010E+6	4.4915	0.2086	-5.4
223.94	1.0020E+6	4.4944	0.2072	-5.6
224.14	1.0030E+6	4.4930	0.2078	-6.1
224.31	1.0040E+6	4.4901	0.2069	-3.8
224.51	1.0050E+6	4.4901	0.2058	-8.5
224.67	1.0060E+6	4.5071	0.2069	-7.8
224.84	1.0070E+6	4.5142	0.2061	-4.2
225.04	1.0080E+6	4.5043	0.2068	-6.5
225.22	1.0090E+6	4.5071	0.2041	-5.6
225.42	1.0100E+6	4.5043	0.2053	-4.9
225.62	1.0110E+6	4.5043	0.2068	-4.2
225.81	1.0120E+6	4.5085	0.2042	-4.9
226.00	1.0130E+6	4.5043	0.2047	-7.1
226.19	1.0140E+6	4.5029	0.2026	-6.9
226.39	1.0150E+6	4.5029	0.2034	-6.0
226.57	1.0160E+6	4.5142	0.2031	-6.9
226.77	1.0170E+6	4.5085	0.2028	-4.4
226.99	1.0180E+6	4.5071	0.2033	-7.3
227.17	1.0190E+6	4.5029	0.2013	-5.1
227.37	1.0200E+6	4.5113	0.2012	-7.0
227.53	1.0210E+6	4.4972	0.2010	-6.1
227.70	1.0220E+6	4.5113	0.2013	-6.4
227.87	1.0230E+6	4.5085	0.1998	-6.8
228.07	1.0240E+6	4.5014	0.1990	-6.5
228.25	1.0250E+6	4.5142	0.2004	-3.5
228.45	1.0260E+6	4.5113	0.1997	-8.8
228.67	1.0270E+6	4.4986	0.1984	-6.6
228.85	1.0280E+6	4.5085	0.1972	-7.0
229.05	1.0290E+6	4.5071	0.1982	-6.5
229.23	1.0300E+6	4.5029	0.1974	-7.1
229.41	1.0310E+6	4.5085	0.1960	-6.5
229.61	1.0320E+6	4.5113	0.1974	-3.7
229.80	1.0330E+6	4.5000	0.1955	-7.8
230.00	1.0340E+6	4.5128	0.1957	-6.9
230.18	1.0350E+6	4.5043	0.1941	-7.6
230.40	1.0360E+6	4.4986	0.1964	-7.5
230.58	1.0370E+6	4.5142	0.1951	-7.7
230.79	1.0380E+6	4.4986	0.1943	-4.9
231.01	1.0390E+6	4.5113	0.1935	-4.5
231.18	1.0400E+6	4.5071	0.1934	-7.7
231.36	1.0410E+6	4.5057	0.1934	-5.6
231.53	1.0420E+6	4.5029	0.1932	-5.6
231.71	1.0430E+6	4.4986	0.1931	-8.3
231.88	1.0440E+6	4.5057	0.1929	-6.4
232.08	1.0450E+6	4.5043	0.1921	-7.0
232.24	1.0460E+6	4.5029	0.1900	-7.3
232.44	1.0470E+6	4.4972	0.1913	-6.0
232.62	1.0480E+6	4.5057	0.1895	-0.6
232.82	1.0490E+6	4.5071	0.1916	-4.7
233.02	1.0500E+6	4.5057	0.1904	-8.5
233.19	1.0510E+6	4.5113	0.1895	-6.1
233.39	1.0520E+6	4.5029	0.1896	-5.3
233.56	1.0530E+6	4.4972	0.1910	-4.2
233.76	1.0540E+6	4.5057	0.1887	-5.1
233.94	1.0550E+6	4.5014	0.1907	-7.8
234.12	1.0560E+6	4.5043	0.1885	-3.8
234.30	1.0570E+6	4.5014	0.1878	-7.8
234.49	1.0580E+6	4.4986	0.1874	-6.5
234.67	1.0590E+6	4.5057	0.1872	-3.8
234.84	1.0600E+6	4.4944	0.1875	-9.3
235.04	1.0610E+6	4.5043	0.1871	-8.2
235.22	1.0620E+6	4.5057	0.1878	-5.2
235.42	1.0630E+6	4.5000	0.1875	-3.8
235.58	1.0640E+6	4.5029	0.1854	-5.7
235.78	1.0650E+6	4.5014	0.1855	-5.8
235.95	1.0660E+6	4.5000	0.1850	-5.6
236.13	1.0670E+6	4.4972	0.1853	-4.0
236.30	1.0680E+6	4.4944	0.1853	-4.4
236.47	1.0690E+6	4.5000	0.1851	-7.7
236.63	1.0700E+6	4.4944	0.1854	-8.5
236.82	1.0710E+6	4.4958	0.1849	-4.4
236.98	1.0720E+6	4.4873	0.1829	-5.2
237.18	1.0730E+6	4.4986	0.1830	-4.1
237.35	1.0740E+6	4.4986	0.1826	-8.5
237.53	1.0750E+6	4.4972	0.1823	-6.0
237.70	1.0760E+6	4.4972	0.1831	-5.0
237.88	1.0770E+6	4.5029	0.1823	-7.0
238.05	1.0780E+6	4.5043	0.1829	-11.1
238.23	1.0790E+6	4.4944	0.1821	-3.9
238.40	1.0800E+6	4.4944	0.1812	-7.4
238.59	1.0810E+6	4.4887	0.1824	-8.2
238.78	1.0820E+6	4.4958	0.1815	-2.5
238.98	1.0830E+6	4.4986	0.1805	-5.1
239.14	1.0840E+6	4.4901	0.1788	-8.8
239.34	1.0850E+6	4.5014	0.1795	-5.3
239.54	1.0860E+6	4.4887	0.1783	-5.7
239.72	1.0870E+6	4.4972	0.1778	-5.5
239.91	1.0880E+6	4.4958	0.1786	-5.7
240.07	1.0890E+6	4.4958	0.1790	-3.1
240.26	1.0900E+6	4.5000	0.1778	-5.7
240.44	1.0910E+6	4.4944	0.1779	-4.5
240.62	1.0920E+6	4.5071	0.1772	-8.9
240.81	1.0930E+6	4.5000	0.1771	-7.1
240.99	1.0940E+6	4.4915	0.1764	-3.9
241.16	1.0950E+6	4.4944	0.1769	-10.0
241.32	1.0960E+6	4.4930	0.1763	-8.7
241.49	1.0970E+6	4.4887	0.1755	-9.5
241.69	1.0980E+6	4.4887	0.1745	-6.1
241.87	1.0990E+6	4.4887	0.1736	-5.3
242.05	1.1000E+6	4.4915	0.1737	-4.7
242.22	1.1010E+6	4.4972	0.1773	-5.1
242.42	1.1020E+6	4.4873	0.1737	-10.1
242.60	1.1030E+6	4.4986	0.1736	-8.0
242.79	1.1040E+6	4.4887	0.1719	-3.6
242.97	1.1050E+6	4.5029	0.1721	-6.0
243.15	1.1060E+6	4.4915	0.1732	-7.2
243.32	1.1070E+6	4.4944	0.1722	-7.0
243.48	1.1080E+6	4.4972	0.1718	-9.2
243.67	1.1090E+6	4.4901	0.1713	-4.6
243.83	1.1100E+6	4.4816	0.1719	-4.0
244.05	1.1110E+6	4.5057	0.1715	-8.6
244.25	1.1120E+6	4.4986	0.1688	-3.0
244.45	1.1130E+6	4.4901	0.1692	-8.2
244.63	1.1140E+6	4.4873	0.1693	-4.4
244.81	1.1150E+6	4.4915	0.1704	-6.2
245.00	1.1160E+6	4.4972	0.1708	-4.2
245.18	1.1170E+6	4.4944	0.1693	-2.8
245.36	1.1180E+6	4.4958	0.1688	-7.1
245.56	1.1190E+6	4.4901	0.1691	-4.6
245.75	1.1200E+6	4.4915	0.1681	-6.9
245.95	1.1210E+6	4.4859	0.1693	-7.5
246.13	1.1220E+6	4.4887	0.1674	-4.4
246.33	1.1230E+6	4.4944	0.1665	-4.9
246.50	1.1240E+6	4.4915	0.1658	-4.3
246.69	1.1250E+6	4.4901	0.1669	-3.2
246.88	1.1260E+6	4.4958	0.1667	-4.0
247.04	1.1270E+6	4.4887	0.1666	-8.5
247.19	1.1280E+6	4.4915	0.1660	-4.5
247.39	1.1290E+6	4.4859	0.1655	-7.1
247.56	1.1300E+6	4.4859	0.1642	-5.3
247.76	1.1310E+6	4.4901	0.1652	-6.5
247.94	1.1320E+6	4.4873	0.1643	-7.5
248.12	1.1330E+6	4.4901	0.1660	-5.5
248.32	1.1340E+6	4.4859	0.1633	-7.3
248.51	1.1350E+6	4.4859	0.1638	-5.1
248.71	1.1360E+6	4.4845	0.1628	-6.5
248.89	1.1370E+6	4.4915	0.1633	-7.4
249.06	1.1380E+6	4.4845	0.1626	-5.9
249.22	1.1390E+6	4.4873	0.1631	-12.1
249.39	1.1400E+6	4.4887	0.1633	+1.0
249.55	1.1410E+6	4.4831	0.1618	-8.2
249.77	1.1420E+6	4.4873	0.1627	-5.7
249.97	1.1430E+6	4.4873	0.1614	-6.0
250.17	1.1440E+6	4.4873	0.1615	-6.4
250.34	1.1450E+6	4.4831	0.1618	-6.4
250.52	1.1460E+6	4.4972	0.1607	-4.1
250.72	1.1470E+6	4.4845	0.1606	-4.5
250.88	1.1480E+6	4.4901	0.1608	-8.5
251.07	1.1490E+6	4.4887	0.1598	-7.7
251.25	1.1500E+6	4.4901	0.1606	-7.5
251.45	1.1510E+6	4.4859	0.1607	-7.9
251.62	1.1520E+6	4.4816	0.1599	-1.9
251.83	1.1530E+6	4.4901	0.1586	-4.6
252.03	1.1540E+6	4.4774	0.1584	-6.5
252.23	1.1550E+6	4.4831	0.1589	-7.1
252.40	1.1560E+6	4.4859	0.1583	-6.9
252.56	1.1570E+6	4.4873	0.1604	-2.9
252.76	1.1580E+6	4.4887	0.1575	-6.9
252.95	1.1590E+6	4.4845	0.1580	-10.4
253.15	1.1600E+6	4.4887	0.1573	-5.4
253.33	1.1610E+6	4.4901	0.1576	-5.6
253.50	1.1620E+6	4.4901	0.1580	-7.3
253.68	1.1630E+6	4.4816	0.1575	-5.2
253.90	1.1640E+6	4.4901	0.1552	-1.9
254.09	1.1650E+6	4.4930	0.1573	-7.9
254.28	1.1660E+6	4.4816	0.1560	-4.2
254.50	1.1670E+6	4.4915	0.1569	-6.9
254.69	1.1680E+6	4.4887	0.1568	-6.7
254.88	1.1690E+6	4.4845	0.1564	-6.3
255.05	1.1700E+6	4.4788	0.1546	-5.9
255.26	1.1710E+6	4.4845	0.1553	-7.4
255.46	1.1720E+6	4.4802	0.1550	-7.2
255.64	1.1730E+6	4.4915	0.1551	-5.3
255.84	1.1740E+6	4.4802	0.1540	-4.2
256.04	1.1750E+6	4.4873	0.1547	-7.0
256.24	1.1760E+6	4.4802	0.1538	-4.2
256.42	1.1770E+6	4.4816	0.1539	-4.7
256.59	1.1780E+6	4.4901	0.1528	-7.2
256.79	1.1790E+6	4.4845	0.1537	-6.2
256.99	1.1800E+6	4.4816	0.1526	-7.4
257.19	1.1810E+6	4.4831	0.1517	-5.3
257.37	1.1820E+6	4.4887	0.1518	-8.7
257.57	1.1830E+6	4.4816	0.1510	-3.8
257.75	1.1840E+6	4.4831	0.1519	-6.4
257.94	1.1850E+6	4.4802	0.1522	-5.8
258.12	1.1860E+6	4.4774	0.1540	-4.9
258.32	1.1870E+6	4.4887	0.1534	-5.6
258.52	1.1880E+6	4.4816	0.1525	-5.8
258.70	1.1890E+6	4.4859	0.1505	-4.5
258.92	1.1900E+6	4.4845	0.1509	-3.9
259.10	1.1910E+6	4.4774	0.1509	-3.9
259.30	1.1920E+6	4.4859	0.1521	-6.9
259.50	1.1930E+6	4.4802	0.1508	-6.4
259.70	1.1940E+6	4.4873	0.1525	-11.2
259.92	1.1950E+6	4.4831	0.1500	-6.2
260.11	1.1960E+6	4.4873	0.1514	-4.5
260.33	1.1970E+6	4.4788	0.1497	-3.2
260.53	1.1980E+6	4.4831	0.1472	-5.8
260.73	1.1990E+6	4.4831	0.1500	-4.7
260.91	1.2000E+6	4.4816	0.1466	-4.5
261.10	1.2010E+6	4.4845	0.1516	-5.8
261.31	1.2020E+6	4.4802	0.1476	-8.0
261.51	1.2030E+6	4.4887	0.1485	-5.4
261.73	1.2040E+6	4.4788	0.1495	-4.1
261.93	1.2050E+6	4.4774	0.1482	-6.1
262.11	1.2060E+6	4.4788	0.1477	-1.7
262.29	1.2070E+6	4.4816	0.1484	-2.6
262.46	1.2080E+6	4.4816	0.1470	-7.0
262.64	1.2090E+6	4.4774	0.1478	-6.1
262.81	1.2100E+6	4.4816	0.1468	-7.4
262.99	1.2110E+6	4.4816	0.1471	-5.9
263.12	1.2120E+6	4.4746	0.1459	-4.8
263.29	1.2130E+6	4.4788	0.1483	-5.2
263.47	1.2140E+6	4.4774	0.1454	-8.5
263.64	1.2150E+6	4.4930	0.1455	-7.2
263.82	1.2160E+6	4.4802	0.1481	-3.5
264.01	1.2170E+6	4.4774	0.1444	-6.1
264.17	1.2180E+6	4.4760	0.1458	-7.9
264.36	1.2190E+6	4.4788	0.1449	-6.8
264.52	1.2200E+6	4.4831	0.1440	-4.4
264.69	1.2210E+6	4.4746	0.1461	-5.1
264.85	1.2220E+6	4.4788	0.1464	-4.2
265.02	1.2230E+6	4.4717	0.1456	-4.4
265.20	1.2240E+6	4.4774	0.1442	-7.0
265.37	1.2250E+6	4.4816	0.1456	-11.3
265.57	1.2260E+6	4.4732	0.1442	-7.5
265.75	1.2270E+6	4.4732	0.1441	-9.3
265.92	1.2280E+6	4.4802	0.1435	-2.2
266.12	1.2290E+6	4.4859	0.1442	-8.0
266.32	1.2300E+6	4.4760	0.1438	-4.4
266.52	1.2310E+6	4.4746	0.1423	-6.4
266.70	1.2320E+6	4.4788	0.1420	-2.7
266.88	1.2330E+6	4.4802	0.1439	-3.5
267.08	1.2340E+6	4.4774	0.1432	-5.6
267.27	1.2350E+6	4.4732	0.1432	-5.8
267.45	1.2360E+6	4.4760	0.1408	-7.4
267.63	1.2370E+6	4.4746	0.1425	-8.0
267.82	1.2380E+6	4.4703	0.1418	-6.2
268.01	1.2390E+6	4.4788	0.1413	-7.8
268.18	1.2400E+6	4.4703	0.1402	-9.6
268.38	1.2410E+6	4.4746	0.1429	-2.7
268.56	1.2420E+6	4.4689	0.1418	-4.5
268.75	1.2430E+6	4.4760	0.1393	-1.1
268.95	1.2440E+6	4.4760	0.1412	-2.0
269.13	1.2450E+6	4.4774	0.1416	-5.2
269.29	1.2460E+6	4.4689	0.1397	-3.8
269.48	1.2470E+6	4.4760	0.1409	-5.4
269.66	1.2480E+6	4.4675	0.1403	-6.8
269.86	1.2490E+6	4.4675	0.1390	-8.5
270.04	1.2500E+6	4.4746	0.1416	-4.5
270.23	1.2510E+6	4.4717	0.1397	-5.6
270.43	1.2520E+6	4.4746	0.1394	-7.0
270.59	1.2530E+6	4.4760	0.1386	-5.9
270.79	1.2540E+6	4.4732	0.1384	-5.2
270.96	1.2550E+6	4.4732	0.1401	-3.4
271.14	1.2560E+6	4.4746	0.1385	-5.4
271.34	1.2570E+6	4.4675	0.1381	-6.1
271.51	1.2580E+6	4.4732	0.1379	-7.3
271.69	1.2590E+6	4.4760	0.1392	-5.9
271.89	1.2600E+6	4.4760	0.1372	-5.7
272.07	1.2610E+6	4.4661	0.1381	-3.8
272.27	1.2620E+6	4.4732	0.1403	-8.2
272.45	1.2630E+6	4.4717	0.1375	-8.0
272.64	1.2640E+6	4.4746	0.1360	-4.1
272.84	1.2650E+6	4.4717	0.1371	-3.4
273.02	1.2660E+6	4.4703	0.1365	-3.9
273.19	1.2670E+6	4.4618	0.1367	-6.4
273.37	1.2680E+6	4.4746	0.1362	-5.5
273.55	1.2690E+6	4.4703	0.1365	-0.9
273.75	1.2700E+6	4.4675	0.1379	-5.7
273.94	1.2710E+6	4.4732	0.1363	-5.5
274.12	1.2720E+6	4.4661	0.1383	-3.0
274.32	1.2730E+6	4.4746	0.1351	-6.0
274.50	1.2740E+6	4.4703	0.1350	-4.1
274.67	1.2750E+6	4.4746	0.1342	-1.8
274.83	1.2760E+6	4.4717	0.1360	-8.3
275.00	1.2770E+6	4.4746	0.1359	-3.2
275.18	1.2780E+6	4.4675	0.1342	-3.0
275.35	1.2790E+6	4.4675	0.1337	-6.9
275.51	1.2800E+6	4.4703	0.1334	-4.8
275.72	1.2810E+6	4.4717	0.1339	-6.9
275.90	1.2820E+6	4.4703	0.1351	-3.9
276.06	1.2830E+6	4.4618	0.1358	-6.0
276.26	1.2840E+6	4.4732	0.1337	-5.3
276.45	1.2850E+6	4.4703	0.1334	-12.5
276.63	1.2860E+6	4.4618	0.1320	-6.9
276.83	1.2870E+6	4.4633	0.1335	-10.6
277.01	1.2880E+6	4.4703	0.1318	-4.6
277.21	1.2890E+6	4.4647	0.1317	-10.4
277.38	1.2900E+6	4.4647	0.1321	-3.7
277.54	1.2910E+6	4.4703	0.1312	-5.6
277.73	1.2920E+6	4.4647	0.1308	-4.2
277.91	1.2930E+6	4.4647	0.1306	-4.0
278.08	1.2940E+6	4.4774	0.1311	-4.2
278.28	1.2950E+6	4.4647	0.1300	-4.2
278.46	1.2960E+6	4.4717	0.1308	-5.3
278.63	1.2970E+6	4.4633	0.1341	-7.5
278.82	1.2980E+6	4.4675	0.1316	-4.2
279.01	1.2990E+6	4.4689	0.1307	-4.5
279.19	1.3000E+6	4.4661	0.1304	-5.6
279.37	1.3010E+6	4.4661	0.1301	-6.3
279.54	1.3020E+6	4.4548	0.1295	-5.6
279.74	1.3030E+6	4.4661	0.1302	-4.2
279.92	1.3040E+6	4.4604	0.1294	-10.3
280.09	1.3050E+6	4.4647	0.1298	-3.5
280.27	1.3060E+6	4.4717	0.1286	-6.1
280.45	1.3070E+6	4.4633	0.1279	-2.6
280.64	1.3080E+6	4.4717	0.1292	-4.5
280.84	1.3090E+6	4.4661	0.1298	-5.9
281.02	1.3100E+6	4.4576	0.1290	-6.8
281.20	1.3110E+6	4.4675	0.1291	-6.1
281.39	1.3120E+6	4.4647	0.1282	-4.0
281.55	1.3130E+6	4.4548	0.1276	-9.9
281.75	1.3140E+6	4.4732	0.1274	-5.0
281.95	1.3150E+6	4.4661	0.1273	-6.4
282.12	1.3160E+6	4.4618	0.1286	-3.8
282.30	1.3170E+6	4.4562	0.1304	-5.2
282.50	1.3180E+6	4.4562	0.1267	-2.8
282.68	1.3190E+6	4.4562	0.1290	-5.9
282.87	1.3200E+6	4.4604	0.1284	-8.1
283.05	1.3210E+6	4.4661	0.1277	-6.7
283.23	1.3220E+6	4.4717	0.1277	-3.6
283.40	1.3230E+6	4.4633	0.1273	-4.8
283.56	1.3240E+6	4.4633	0.1266	-7.2
283.75	1.3250E+6	4.4562	0.1246	-6.0
283.95	1.3260E+6	4.4590	0.1242	-8.6
284.11	1.3270E+6	4.4675	0.1270	-8.6
284.30	1.3280E+6	4.4618	0.1257	-3.1
284.48	1.3290E+6	4.4590	0.1252	-6.0
284.65	1.3300E+6	4.4576	0.1245	-4.1
284.83	1.3310E+6	4.4604	0.1256	-5.0
285.03	1.3320E+6	4.4604	0.1243	-7.0
285.21	1.3330E+6	4.4647	0.1260	-7.7
285.39	1.3340E+6	4.4505	0.1246	-7.2
285.61	1.3350E+6	4.4647	0.1242	-6.7
285.79	1.3360E+6	4.4534	0.1235	-5.1
285.99	1.3370E+6	4.4661	0.1241	-1.9
286.21	1.3380E+6	4.4618	0.1255	-6.5
286.39	1.3390E+6	4.4633	0.1259	-7.5
286.56	1.3400E+6	4.4590	0.1250	-9.4
286.77	1.3410E+6	4.4647	0.1250	-3.1
286.94	1.3420E+6	4.4505	0.1236	-6.5
287.14	1.3430E+6	4.4576	0.1232	-11.6
287.34	1.3440E+6	4.4534	0.1256	-4.8
287.54	1.3450E+6	4.4618	0.1256	-5.3
287.71	1.3460E+6	4.4562	0.1236	-3.2
287.91	1.3470E+6	4.4590	0.1223	-5.6
288.07	1.3480E+6	4.4618	0.1234	-4.1
288.25	1.3490E+6	4.4505	0.1224	-3.9
288.46	1.3500E+6	4.4604	0.1236	-9.9
288.64	1.3510E+6	4.4618	0.1214	-7.8
288.82	1.3520E+6	4.4491	0.1215	-1.7
289.02	1.3530E+6	4.4534	0.1214	-6.3
289.19	1.3540E+6	4.4590	0.1214	-6.8
289.35	1.3550E+6	4.4590	0.1240	-7.1
289.55	1.3560E+6	4.4604	0.1219	-5.1
289.74	1.3570E+6	4.4562	0.1214	-4.2
289.90	1.3580E+6	4.4576	0.1219	-5.4
290.07	1.3590E+6	4.4562	0.1217	-5.8
290.22	1.3600E+6	4.4449	0.1217	-5.9
290.40	1.3610E+6	4.4633	0.1212	-5.2
290.58	1.3620E+6	4.4618	0.1206	-4.4
290.78	1.3630E+6	4.4590	0.1204	-4.9
290.95	1.3640E+6	4.4505	0.1208	-3.4
291.12	1.3650E+6	4.4661	0.1221	-3.7
291.33	1.3660E+6	4.4534	0.1210	-1.5
291.50	1.3670E+6	4.4618	0.1202	-5.4
291.70	1.3680E+6	4.4562	0.1210	-5.9
291.88	1.3690E+6	4.4519	0.1205	-6.7
292.06	1.3700E+6	4.4576	0.1194	-5.9
292.25	1.3710E+6	4.4519	0.1186	-6.9
292.43	1.3720E+6	4.4604	0.1193	-5.9
292.60	1.3730E+6	4.4463	0.1185	-5.2
292.76	1.3740E+6	4.4519	0.1192	-2.0
292.93	1.3750E+6	4.4548	0.1181	-7.4
293.06	1.3760E+6	4.4576	0.1180	-2.7
293.24	1.3770E+6	4.4590	0.1177	-5.5
293.41	1.3780E+6	4.4548	0.1186	-6.5
293.61	1.3790E+6	4.4675	0.1198	-3.0
293.81	1.3800E+6	4.4534	0.1190	-7.5
294.03	1.3810E+6	4.4562	0.1174	-5.0
294.23	1.3820E+6	4.4534	0.1177	-5.7
294.41	1.3830E+6	4.4519	0.1180	-5.2
294.56	1.3840E+6	4.4491	0.1166	-2.7
294.76	1.3850E+6	4.4548	0.1172	-4.0
294.94	1.3860E+6	4.4562	0.1163	-5.7
295.14	1.3870E+6	4.4477	0.1174	-5.5
295.36	1.3880E+6	4.4562	0.1152	-0.2
295.56	1.3890E+6	4.4477	0.1181	-5.7
295.76	1.3900E+6	4.4562	0.1170	-5.3
295.95	1.3910E+6	4.4463	0.1163	-0.8
296.15	1.3920E+6	4.4491	0.1159	-10.0
296.32	1.3930E+6	4.4505	0.1151	-5.8
296.52	1.3940E+6	4.4534	0.1156	-8.8
296.69	1.3950E+6	4.4463	0.1157	-0.5
296.85	1.3960E+6	4.4491	0.1165	-7.8
297.04	1.3970E+6	4.4491	0.1149	+1.3
297.22	1.3980E+6	4.4519	0.1166	-6.8
297.40	1.3990E+6	4.4505	0.1164	-6.3
297.57	1.4000E+6	4.4463	0.1169	-2.8
297.77	1.4010E+6	4.4505	0.1144	-6.1
297.95	1.4020E+6	4.4491	0.1153	-2.5
298.12	1.4030E+6	4.4420	0.1140	-3.5
298.28	1.4040E+6	4.4534	0.1139	-4.8
298.45	1.4050E+6	4.4604	0.1161	+2.3
298.65	1.4060E+6	4.4449	0.1141	-4.1
298.87	1.4070E+6	4.4548	0.1147	-3.5
299.03	1.4080E+6	4.4534	0.1145	-4.0
299.20	1.4090E+6	4.4463	0.1117	-10.9
299.38	1.4100E+6	4.4519	0.1148	-5.3
299.58	1.4110E+6	4.4449	0.1146	-7.6
299.75	1.4120E+6	4.4519	0.1156	-7.9
299.93	1.4130E+6	4.4477	0.1136	-7.6
300.13	1.4140E+6	4.4420	0.1137	-5.9
300.30	1.4150E+6	4.4449	0.1150	-5.9
300.48	1.4160E+6	4.4463	0.1123	-6.6
300.68	1.4170E+6	4.4519	0.1128	-7.9
300.86	1.4180E+6	4.4435	0.1132	-3.6
301.01	1.4190E+6	4.4534	0.1136	-1.3
301.18	1.4200E+6	4.4406	0.1133	-6.4
301.34	1.4210E+6	4.4435	0.1117	-5.4
301.53	1.4220E+6	4.4435	0.1152	-5.9
301.71	1.4230E+6	4.4420	0.1130	-4.4
301.91	1.4240E+6	4.4491	0.1130	-3.3
302.07	1.4250E+6	4.4420	0.1115	-6.7
302.26	1.4260E+6	4.4420	0.1134	-2.1
302.46	1.4270E+6	4.4534	0.1113	-9.0
302.64	1.4280E+6	4.4449	0.1129	-6.9
302.82	1.4290E+6	4.4463	0.1112	-6.4
303.01	1.4300E+6	4.4435	0.1135	-4.6
303.21	1.4310E+6	4.4392	0.1119	-6.9
303.39	1.4320E+6	4.4449	0.1114	-8.3
303.56	1.4330E+6	4.4505	0.1110	-6.7
303.76	1.4340E+6	4.4378	0.1121	-6.7
303.94	1.4350E+6	4.4463	0.1105	-7.7
304.12	1.4360E+6	4.4406	0.1094	-5.4
304.30	1.4370E+6	4.4505	0.1126	-4.7
304.49	1.4380E+6	4.4392	0.1124	-6.2
304.67	1.4390E+6	4.4420	0.1131	-3.9
304.85	1.4400E+6	4.4392	0.1106	-7.0
305.05	1.4410E+6	4.4534	0.1105	-5.4
305.22	1.4420E+6	4.4449	0.1111	-7.3
305.40	1.4430E+6	4.4435	0.1114	-8.6
305.57	1.4440E+6	4.4350	0.1127	-7.0
305.77	1.4450E+6	4.4449	0.1109	-6.0
305.95	1.4460E+6	4.4406	0.1116	-6.5
306.13	1.4470E+6	4.4364	0.1104	-10.2
306.33	1.4480E+6	4.4378	0.1106	-5.0
306.50	1.4490E+6	4.4392	0.1098	-5.0
306.65	1.4500E+6	4.4463	0.1102	-3.9
306.81	1.4510E+6	4.4336	0.1097	-5.5
306.98	1.4520E+6	4.4406	0.1073	-5.5
307.16	1.4530E+6	4.4392	0.1072	-5.0
307.33	1.4540E+6	4.4336	0.1098	-6.3
307.53	1.4550E+6	4.4435	0.1079	-9.4
307.71	1.4560E+6	4.4420	0.1098	-2.9
307.88	1.4570E+6	4.4364	0.1089	-7.4
308.06	1.4580E+6	4.4364	0.1098	-8.1
308.25	1.4590E+6	4.4321	0.1082	-5.0
308.43	1.4600E+6	4.4406	0.1084	-5.5
308.60	1.4610E+6	4.4406	0.1086	-7.9
308.76	1.4620E+6	4.4392	0.1077	-6.3
308.94	1.4630E+6	4.4350	0.1078	-4.5
309.11	1.4640E+6	4.4406	0.1096	-6.9
309.29	1.4650E+6	4.4477	0.1083	+0.0
309.49	1.4660E+6	4.4307	0.1080	-6.9
309.68	1.4670E+6	4.4350	0.1083	-6.6
309.86	1.4680E+6	4.4350	0.1076	-0.3
310.06	1.4690E+6	4.4378	0.1075	-6.1
310.22	1.4700E+6	4.4420	0.1068	-2.9
310.39	1.4710E+6	4.4336	0.1085	-6.1
310.57	1.4720E+6	4.4364	0.1084	-6.9
310.74	1.4730E+6	4.4251	0.1101	-10.1
310.94	1.4740E+6	4.4435	0.1076	-8.5
311.14	1.4750E+6	4.4293	0.1070	-5.3
311.31	1.4760E+6	4.4364	0.1073	-4.5
311.49	1.4770E+6	4.4364	0.1076	-4.3
311.65	1.4780E+6	4.4364	0.1063	-1.3
311.84	1.4790E+6	4.4420	0.1055	-3.2
312.00	1.4800E+6	4.4336	0.1079	-6.7
312.17	1.4810E+6	4.4406	0.1064	-5.3
312.35	1.4820E+6	4.4435	0.1059	-8.3
312.50	1.4830E+6	4.4336	0.1102	-4.3
312.70	1.4840E+6	4.4336	0.1047	-4.5
312.88	1.4850E+6	4.4307	0.1052	-6.4
313.05	1.4860E+6	4.4392	0.1060	-2.7
313.25	1.4870E+6	4.4279	0.1062	-3.5
313.42	1.4880E+6	4.4307	0.1059	-7.0
313.58	1.4890E+6	4.4420	0.1040	-8.8
313.77	1.4900E+6	4.4279	0.1057	-3.5
313.97	1.4910E+6	4.4350	0.1066	-4.3
314.13	1.4920E+6	4.4293	0.1072	+0.3
314.32	1.4930E+6	4.4279	0.1056	-5.6
314.50	1.4940E+6	4.4279	0.1062	-6.2
314.67	1.4950E+6	4.4406	0.1055	-5.9
314.83	1.4960E+6	4.4293	0.1055	-3.8
315.00	1.4970E+6	4.4307	0.1042	-7.3
315.18	1.4980E+6	4.4293	0.1044	+0.8
315.36	1.4990E+6	4.4336	0.0991	-3.2
315.55	1.5000E+6	4.4307	0.1038	-4.9
315.71	1.5010E+6	4.4321	0.1034	-5.7
315.90	1.5020E+6	4.4251	0.1048	-7.1
316.10	1.5030E+6	4.4378	0.1052	-5.4
316.26	1.5040E+6	4.4321	0.1034	-4.6
316.44	1.5050E+6	4.4350	0.1050	-3.5
316.64	1.5060E+6	4.4237	0.1047	-4.6
316.83	1.5070E+6	4.4293	0.1040	-4.6
317.01	1.5080E+6	4.4321	0.1053	-1.9
317.18	1.5090E+6	4.4321	0.1062	-3.5
317.38	1.5100E+6	4.4208	0.1020	-10.9
317.58	1.5110E+6	4.4321	0.1035	-5.4
317.77	1.5120E+6	4.4251	0.1038	-5.4
317.96	1.5130E+6	4.4307	0.1012	-9.5
318.17	1.5140E+6	4.4251	0.1044	-7.9
318.37	1.5150E+6	4.4279	0.1032	-5.4
318.57	1.5160E+6	4.4265	0.1025	-6.8
318.74	1.5170E+6	4.4392	0.1008	-6.5
318.96	1.5180E+6	4.4194	0.1032	-3.8
319.16	1.5190E+6	4.4307	0.1026	-6.3
319.34	1.5200E+6	4.4237	0.1015	-4.9
319.56	1.5210E+6	4.4237	0.1018	-8.5
319.72	1.5220E+6	4.4237	0.1032	-6.8
319.90	1.5230E+6	4.4293	0.1006	-7.4
320.10	1.5240E+6	4.4222	0.1008	-4.9
320.30	1.5250E+6	4.4321	0.1017	-3.0
320.50	1.5260E+6	4.4293	0.1022	-5.2
320.67	1.5270E+6	4.4222	0.0987	-8.8
320.85	1.5280E+6	4.4237	0.1017	-1.4
321.05	1.5290E+6	4.4307	0.1019	-3.3
321.22	1.5300E+6	4.4237	0.1005	-11.3
321.42	1.5310E+6	4.4222	0.0992	-8.2
321.60	1.5320E+6	4.4321	0.1003	-2.8
321.82	1.5330E+6	4.4208	0.1011	-8.3
322.02	1.5340E+6	4.4265	0.1004	-5.0
322.20	1.5350E+6	4.4237	0.1021	-8.3
322.38	1.5360E+6	4.4251	0.1019	-4.1
322.56	1.5370E+6	4.4194	0.1008	-2.8
322.75	1.5380E+6	4.4279	0.1005	-5.0
322.91	1.5390E+6	4.4237	0.1018	-5.3
323.10	1.5400E+6	4.4307	0.1012	-3.6
323.30	1.5410E+6	4.4265	0.1009	-6.4
323.50	1.5420E+6	4.4279	0.1003	-1.7
323.66	1.5430E+6	4.4180	0.1011	-2.8
323.85	1.5440E+6	4.4265	0.0991	-2.5
324.05	1.5450E+6	4.4293	0.0994	-0.6
324.21	1.5460E+6	4.4222	0.1003	-5.6
324.41	1.5470E+6	4.4208	0.0985	-10.9
324.59	1.5480E+6	4.4222	0.0995	-6.4
324.78	1.5490E+6	4.4180	0.0996	-3.6
324.93	1.5500E+6	4.4237	0.0998	-5.0
325.09	1.5510E+6	4.4222	0.0997	-1.1
325.28	1.5520E+6	4.4307	0.0993	-3.1
325.48	1.5530E+6	4.4152	0.1013	-9.0
325.68	1.5540E+6	4.4237	0.1019	-5.6
325.84	1.5550E+6	4.4152	0.1018	-3.6
326.01	1.5560E+6	4.4222	0.0991	-4.2
326.21	1.5570E+6	4.4166	0.0992	-0.3
326.36	1.5580E+6	4.4194	0.0997	-3.9
326.52	1.5590E+6	4.4237	0.0977	-9.8
326.71	1.5600E+6	4.4138	0.0986	-5.3
326.90	1.5610E+6	4.4180	0.1012	-6.5
327.09	1.5620E+6	4.4208	0.0972	-9.3
327.27	1.5630E+6	4.4208	0.0986	-4.8
327.45	1.5640E+6	4.4208	0.0997	-6.8
327.64	1.5650E+6	4.4222	0.0972	-10.4
327.82	1.5660E+6	4.4265	0.0965	-4.8
328.00	1.5670E+6	4.4138	0.0979	-7.6
328.19	1.5680E+6	4.4138	0.0974	-9.0
328.35	1.5690E+6	4.4194	0.0982	-6.5
328.52	1.5700E+6	4.4222	0.0972	-4.0
328.69	1.5710E+6	4.4222	0.0972	-2.8
328.85	1.5720E+6	4.4166	0.0972	-7.0
329.04	1.5730E+6	4.4208	0.0974	-5.1
329.20	1.5740E+6	4.4123	0.0982	-7.9
329.35	1.5750E+6	4.4237	0.0971	-2.5
329.52	1.5760E+6	4.4222	0.0963	-6.8
329.72	1.5770E+6	4.4251	0.0981	-4.2
329.90	1.5780E+6	4.4208	0.0995	-3.4
330.08	1.5790E+6	4.4152	0.0971	-8.0
330.25	1.5800E+6	4.4152	0.0971	-6.8
330.40	1.5810E+6	4.4208	0.0957	-4.3
330.60	1.5820E+6	4.4053	0.0963	-3.7
330.76	1.5830E+6	4.4053	0.0963	-5.1
330.92	1.5840E+6	4.4166	0.0966	-7.4
331.08	1.5850E+6	4.4222	0.0980	-2.6
331.28	1.5860E+6	4.4194	0.0966	-4.0
331.46	1.5870E+6	4.4067	0.0951	-0.6
331.63	1.5880E+6	4.4081	0.0983	-6.9
331.81	1.5890E+6	4.4208	0.0946	-8.6
332.00	1.5900E+6	4.4166	0.0970	-6.9
332.18	1.5910E+6	4.4138	0.0951	-3.4
332.36	1.5920E+6	4.4109	0.0972	-8.9
332.54	1.5930E+6	4.4138	0.0965	-7.4
332.73	1.5940E+6	4.4152	0.0964	-2.9
332.89	1.5950E+6	4.4067	0.0978	-6.0
333.07	1.5960E+6	4.4109	0.0967	-3.5
333.26	1.5970E+6	4.4109	0.0948	-9.5
333.46	1.5980E+6	4.4166	0.0951	-10.4
333.62	1.5990E+6	4.4152	0.0959	-2.0
333.81	1.6000E+6	4.4194	0.0960	-3.2
333.97	1.6010E+6	4.4053	0.0967	-4.3
334.12	1.6020E+6	4.4095	0.0946	-4.0
334.32	1.6030E+6	4.4166	0.0974	+0.3
334.49	1.6040E+6	4.4081	0.0953	-7.2
334.67	1.6050E+6	4.4138	0.0960	-4.9
334.86	1.6060E+6	4.4152	0.0961	-6.1
335.04	1.6070E+6	4.4293	0.0964	-6.4
335.21	1.6080E+6	4.4222	0.0945	-1.7
335.40	1.6090E+6	4.4293	0.0973	-1.7
335.60	1.6100E+6	4.4194	0.0934	-4.6
335.82	1.6110E+6	4.4265	0.0906	-11.3
335.99	1.6120E+6	4.4265	0.0956	-1.5
336.17	1.6130E+6	4.4237	0.0951	-10.7
336.35	1.6140E+6	4.4237	0.0939	-9.9
336.54	1.6150E+6	4.4180	0.0982	-6.7
336.74	1.6160E+6	4.4194	0.0954	-1.2
336.92	1.6170E+6	4.4307	0.0958	-2.0
337.12	1.6180E+6	4.4152	0.0940	-6.4
337.32	1.6190E+6	4.4180	0.0940	-5.3
337.50	1.6200E+6	4.4265	0.0937	-10.5
337.67	1.6210E+6	4.4237	0.0952	-5.3
337.85	1.6220E+6	4.4321	0.0933	-7.9
338.05	1.6230E+6	4.4265	0.0945	-5.3
338.26	1.6240E+6	4.4265	0.0953	-3.8
338.43	1.6250E+6	4.4208	0.0936	-7.6
338.61	1.6260E+6	4.4293	0.0927	-6.7
338.78	1.6270E+6	4.4138	0.0937	-2.6
338.96	1.6280E+6	4.4336	0.0931	-8.5
339.16	1.6290E+6	4.4265	0.0928	-2.3
339.35	1.6300E+6	4.4194	0.0939	-4.4
339.50	1.6310E+6	4.4251	0.0935	-5.0
339.66	1.6320E+6	4.4194	0.0933	-5.0
339.84	1.6330E+6	4.4293	0.0942	-6.8
340.04	1.6340E+6	4.4251	0.0931	-7.1
340.24	1.6350E+6	4.4194	0.0932	-6.5
340.41	1.6360E+6	4.4194	0.0947	-6.8
340.59	1.6370E+6	4.4237	0.0926	-8.2
340.79	1.6380E+6	4.4166	0.0932	-7.3
340.96	1.6390E+6	4.4180	0.0920	-5.0
341.14	1.6400E+6	4.4166	0.0920	-7.9
341.31	1.6410E+6	4.4180	0.0945	-4.1
341.51	1.6420E+6	4.4208	0.0949	-8.3
341.67	1.6430E+6	4.4152	0.0919	-9.8
341.84	1.6440E+6	4.4194	0.0937	-5.9
342.02	1.6450E+6	4.4166	0.0921	-6.8
342.21	1.6460E+6	4.4123	0.0932	-4.7
342.41	1.6470E+6	4.4222	0.0930	-6.2
342.57	1.6480E+6	4.4138	0.0920	-6.5
342.75	1.6490E+6	4.4138	0.0902	-6.2
342.94	1.6500E+6	4.4180	0.0927	-7.7
343.14	1.6510E+6	4.4237	0.0932	-6.2
343.30	1.6520E+6	4.4237	0.0933	-7.1
343.47	1.6530E+6	4.4152	0.0903	-5.6
343.64	1.6540E+6	4.4208	0.0934	-6.5
343.82	1.6550E+6	4.4237	0.0941	-5.6
344.02	1.6560E+6	4.4152	0.0933	-6.3
344.20	1.6570E+6	4.4152	0.0917	-6.3
344.37	1.6580E+6	4.4138	0.0919	-0.6
344.54	1.6590E+6	4.4152	0.0916	-7.1
344.70	1.6600E+6	4.4222	0.0917	-4.5
344.87	1.6610E+6	4.4123	0.0924	-5.4
345.02	1.6620E+6	4.4138	0.0907	-6.0
345.20	1.6630E+6	4.4166	0.0895	-3.9
345.38	1.6640E+6	4.4123	0.0909	-3.9
345.58	1.6650E+6	4.4180	0.0909	-6.0
345.73	1.6660E+6	4.4053	0.0917	-8.1
345.91	1.6670E+6	4.4138	0.0910	-3.6
346.10	1.6680E+6	4.4095	0.0913	-4.2
346.28	1.6690E+6	4.4095	0.0901	-7.2
346.46	1.6700E+6	4.4279	0.0899	-5.7
346.65	1.6710E+6	4.4123	0.0917	-1.5
346.85	1.6720E+6	4.4053	0.0901	-6.9
347.03	1.6730E+6	4.4024	0.0909	-4.2
347.20	1.6740E+6	4.4194	0.0891	-8.4
347.38	1.6750E+6	4.4152	0.0909	-0.6
347.55	1.6760E+6	4.4095	0.0905	-5.1
347.71	1.6770E+6	4.4024	0.0867	-8.7
347.89	1.6780E+6	4.4166	0.0887	-3.3
348.08	1.6790E+6	4.4081	0.0877	-2.7
348.24	1.6800E+6	4.4109	0.0890	-4.2
348.43	1.6810E+6	4.4095	0.0886	-5.4
348.59	1.6820E+6	4.4081	0.0894	-7.0
348.76	1.6830E+6	4.4109	0.0902	-3.3
348.96	1.6840E+6	4.4109	0.0919	-5.8
349.12	1.6850E+6	4.4123	0.0903	-3.3
349.31	1.6860E+6	4.4166	0.0897	-6.1
349.49	1.6870E+6	4.4152	0.0894	-4.2
349.67	1.6880E+6	4.4138	0.0899	-4.3
349.86	1.6890E+6	4.4039	0.0890	-1.8
350.04	1.6900E+6	4.4053	0.0898	-2.7
350.22	1.6910E+6	4.4095	0.0887	-5.2
350.39	1.6920E+6	4.3996	0.0880	-3.0
350.57	1.6930E+6	4.4067	0.0902	-6.4
350.74	1.6940E+6	4.4067	0.0888	-4.0
350.92	1.6950E+6	4.4053	0.0893	-3.0
351.09	1.6960E+6	4.4123	0.0892	-4.3
351.25	1.6970E+6	4.4081	0.0872	-3.7
351.44	1.6980E+6	4.4039	0.0883	-3.1
351.59	1.6990E+6	4.4109	0.0879	-2.4
351.74	1.7000E+6	4.4024	0.0883	-7.0
351.90	1.7010E+6	4.4081	0.0866	-0.9
352.08	1.7020E+6	4.4095	0.0851	-5.8
352.29	1.7030E+6	4.4039	0.0832	-5.8
352.47	1.7040E+6	4.4095	0.0869	-4.9
352.65	1.7050E+6	4.3996	0.0881	-6.1
352.82	1.7060E+6	4.4067	0.0891	-6.7
353.02	1.7070E+6	4.4039	0.0875	-0.9
353.20	1.7080E+6	4.4123	0.0877	-4.0
353.37	1.7090E+6	4.4095	0.0904	-4.9
353.55	1.7100E+6	4.4081	0.0875	-2.1
353.71	1.7110E+6	4.4024	0.0880	-3.1
353.88	1.7120E+6	4.4024	0.0888	-7.4
354.05	1.7130E+6	4.4010	0.0865	-5.2
354.23	1.7140E+6	4.4010	Inf	-371.0
354.40	1.7150E+6	4.4010	0.0826	-0.3
354.58	1.7160E+6	4.3968	0.0858	-5.3
354.80	1.7170E+6	4.3996	0.0869	-3.7
354.96	1.7180E+6	4.3968	0.0879	-2.8
355.16	1.7190E+6	4.4039	0.0858	-7.4
355.36	1.7200E+6	4.3954	0.0850	-9.6
355.56	1.7210E+6	4.4067	0.0851	-4.3
355.76	1.7220E+6	4.4024	0.0843	-5.6
355.93	1.7230E+6	4.3996	0.0858	-7.1
356.11	1.7240E+6	4.4024	0.0864	-7.8
356.28	1.7250E+6	4.3968	0.0844	-6.8
356.46	1.7260E+6	4.3996	0.0861	-6.5
356.68	1.7270E+6	4.3982	0.0856	-6.2
356.84	1.7280E+6	4.3968	0.0851	-1.9
357.02	1.7290E+6	4.4053	0.0853	-1.6
357.21	1.7300E+6	4.4067	Inf	-4.7
357.37	1.7310E+6	4.3996	0.0846	-1.9
357.54	1.7320E+6	4.3996	0.0881	-9.3
357.72	1.7330E+6	4.4024	0.0866	-6.2
357.89	1.7340E+6	4.3911	0.0851	-5.3
358.09	1.7350E+6	4.3996	0.0837	+0.0
358.29	1.7360E+6	4.3968	0.0864	-8.1
358.50	1.7370E+6	4.4039	0.0860	-4.4
358.67	1.7380E+6	4.3925	0.0864	-5.6
358.85	1.7390E+6	4.4053	0.0841	+0.3
359.06	1.7400E+6	4.3897	0.0842	-11.0
359.25	1.7410E+6	4.3968	0.0865	-4.1
359.45	1.7420E+6	4.3897	0.0850	-8.5
359.64	1.7430E+6	4.4024	0.0850	-6.6
359.82	1.7440E+6	4.3982	0.0853	-2.8
359.99	1.7450E+6	4.3897	0.0845	-2.2
360.13	1.7460E+6	4.3897	0.0851	-7.8
360.30	1.7470E+6	4.3982	0.0811	-3.5
360.47	1.7480E+6	4.4010	0.0839	-0.9
360.67	1.7490E+6	4.3897	0.0855	-7.5
360.87	1.7500E+6	4.4010	0.0833	-5.4
361.07	1.7510E+6	4.3996	0.0844	-4.1
361.26	1.7520E+6	4.3968	0.0837	-7.0
361.46	1.7530E+6	4.3954	0.0819	-13.8
361.65	1.7540E+6	4.3968	0.0844	-0.3
361.81	1.7550E+6	4.4010	0.0848	-7.9
361.98	1.7560E+6	4.3954	0.0856	-4.4
362.20	1.7570E+6	4.3968	0.0833	-6.0
362.38	1.7580E+6	4.3996	0.0850	-8.5
362.58	1.7590E+6	4.3954	0.0843	-6.0
362.76	1.7600E+6	4.4081	0.0837	-5.0
362.96	1.7610E+6	4.4010	0.0840	-5.7
363.13	1.7620E+6	4.3855	0.0823	-5.7
363.35	1.7630E+6	4.3911	0.0828	-5.7
363.51	1.7640E+6	4.4053	0.0836	-8.2
363.68	1.7650E+6	4.3940	0.0834	-7.0
363.84	1.7660E+6	4.3954	0.0822	-6.4
364.01	1.7670E+6	4.3826	0.0849	-7.3
364.21	1.7680E+6	4.4010	0.0838	-5.1
364.41	1.7690E+6	4.3770	0.0834	-3.5
364.59	1.7700E+6	4.3883	0.0840	-3.5
364.76	1.7710E+6	4.3925	0.0847	-2.5
364.94	1.7720E+6	4.3968	0.0826	+0.0
365.14	1.7730E+6	4.3883	0.0830	-6.4
365.32	1.7740E+6	4.4010	0.0805	-3.2
365.52	1.7750E+6	4.3925	0.0818	-6.4
365.72	1.7760E+6	4.3996	0.0834	-1.6
365.92	1.7770E+6	4.3954	0.0833	-3.5
366.12	1.7780E+6	4.3968	0.0820	-4.8
366.31	1.7790E+6	4.3841	0.0824	-4.8
366.47	1.7800E+6	4.4095	0.0812	-2.9
366.67	1.7810E+6	4.3897	0.0827	-7.7
366.87	1.7820E+6	4.3954	0.0836	-7.4
367.05	1.7830E+6	4.3855	0.0817	-1.6
367.25	1.7840E+6	4.3940	0.0814	-0.6
367.40	1.7850E+6	4.3883	0.0837	-5.8
367.57	1.7860E+6	4.3911	0.0819	-5.1
367.75	1.7870E+6	4.3855	0.0820	-4.2
367.90	1.7880E+6	4.3954	0.0831	-5.5
368.10	1.7890E+6	4.3925	0.0823	-9.3
368.28	1.7900E+6	4.3940	0.0821	-5.8
368.45	1.7910E+6	4.3883	0.0821	-9.4
368.62	1.7920E+6	4.3982	0.0815	-2.6
368.78	1.7930E+6	4.4010	0.0818	-1.3
368.97	1.7940E+6	4.3826	0.0824	-4.2
369.15	1.7950E+6	4.3784	0.0777	-1.0
369.31	1.7960E+6	4.3883	0.0812	-6.8
369.50	1.7970E+6	4.3812	0.0810	-5.2
369.65	1.7980E+6	4.3812	0.0827	-4.8
369.83	1.7990E+6	4.3869	0.0819	-1.9
370.00	1.8000E+6	4.3869	0.0813	-7.5
370.18	1.8010E+6	4.3855	0.0802	-5.8
370.35	1.8020E+6	4.3869	0.0802	-1.6
370.51	1.8030E+6	4.3855	0.0832	-3.2
370.69	1.8040E+6	4.3826	0.0802	-1.3
370.88	1.8050E+6	4.3855	0.0806	-7.5
371.03	1.8060E+6	4.3812	0.0819	-4.2
371.21	1.8070E+6	4.3869	0.0809	-9.8
371.39	1.8080E+6	4.3756	0.0803	-10.4
371.56	1.8090E+6	4.3883	0.0819	-4.2
371.74	1.8100E+6	4.3855	0.0799	-5.9
371.93	1.8110E+6	4.3897	0.0793	-2.3
372.11	1.8120E+6	4.3812	0.0814	-3.9
372.29	1.8130E+6	4.3826	0.0808	-0.3
372.47	1.8140E+6	4.3798	Inf	-368.0
372.64	1.8150E+6	4.3869	Inf	+4.3
372.82	1.8160E+6	4.3812	0.0814	-5.6
373.01	1.8170E+6	4.3897	0.0802	-6.9
373.19	1.8180E+6	4.3713	0.0822	-6.5
373.37	1.8190E+6	4.3770	0.0810	-5.3
373.56	1.8200E+6	4.3826	0.0819	-5.9
373.76	1.8210E+6	4.3770	0.0795	-7.5
373.94	1.8220E+6	4.3812	0.0806	-4.3
374.12	1.8230E+6	4.3925	0.0806	-4.9
374.29	1.8240E+6	4.3841	0.0800	-7.6
374.45	1.8250E+6	4.3812	0.0803	-2.6
374.62	1.8260E+6	4.3798	0.0799	-2.3
374.79	1.8270E+6	4.3940	0.0761	-8.9
374.97	1.8280E+6	4.3713	0.0812	-4.9
375.15	1.8290E+6	4.3770	0.0814	-3.0
375.34	1.8300E+6	4.3713	0.0792	-2.6
375.52	1.8310E+6	4.3841	0.0776	-3.0
375.70	1.8320E+6	4.3671	0.0791	-4.0
375.92	1.8330E+6	4.3869	0.0796	-8.2
376.10	1.8340E+6	4.3826	0.0793	-2.3
376.25	1.8350E+6	4.3812	0.0818	-5.0
376.43	1.8360E+6	4.3798	0.0792	-7.9
376.62	1.8370E+6	4.3727	0.0809	-6.9
376.82	1.8380E+6	4.3812	0.0807	-9.9
376.97	1.8390E+6	4.3784	0.0796	-6.9
377.15	1.8400E+6	4.3756	0.0798	-8.6
377.30	1.8410E+6	4.3770	0.0792	-6.0
377.45	1.8420E+6	4.3841	0.0800	-8.3
377.63	1.8430E+6	4.3784	0.0795	-1.7
377.83	1.8440E+6	4.3770	0.0796	-8.6
378.00	1.8450E+6	4.3841	0.0800	-9.3
378.18	1.8460E+6	4.3671	0.0795	-4.3
378.38	1.8470E+6	4.3713	0.0789	-6.0
378.55	1.8480E+6	4.3883	0.0747	-1.7
378.75	1.8490E+6	4.3742	0.0797	-3.3
378.93	1.8500E+6	4.3756	0.0787	-3.3
379.10	1.8510E+6	4.3756	0.0783	-5.3
379.28	1.8520E+6	4.3727	0.0796	-6.7
379.46	1.8530E+6	4.3770	0.0785	-0.7
379.64	1.8540E+6	4.3614	0.0782	-4.3
379.84	1.8550E+6	4.3699	0.0789	-7.0
380.03	1.8560E+6	4.3770	0.0799	-7.7
380.19	1.8570E+6	4.3756	0.0782	-4.0
380.37	1.8580E+6	4.3699	0.0788	-6.7
380.57	1.8590E+6	4.3770	0.0786	-2.3
380.76	1.8600E+6	4.3643	0.0779	-3.7
380.97	1.8610E+6	4.3784	0.0769	-2.3
381.17	1.8620E+6	4.3756	0.0780	-4.7
381.36	1.8630E+6	4.3798	0.0805	-3.7
381.54	1.8640E+6	4.3784	0.0785	-6.7
381.71	1.8650E+6	4.3770	0.0790	-8.7
381.87	1.8660E+6	4.3657	0.0789	-5.7
382.07	1.8670E+6	4.3727	0.0777	-4.4
382.27	1.8680E+6	4.3770	0.0771	-4.4
382.44	1.8690E+6	4.3558	0.0773	-5.4
382.60	1.8700E+6	4.3685	0.0765	-4.4
382.79	1.8710E+6	4.3643	0.0781	-4.7
382.97	1.8720E+6	4.3770	0.0791	-4.4
383.19	1.8730E+6	4.3572	0.0766	-10.5
383.38	1.8740E+6	4.3742	0.0765	-4.4
383.55	1.8750E+6	4.3685	0.0781	-4.4
383.75	1.8760E+6	4.3742	0.0770	-5.4
383.95	1.8770E+6	4.3614	0.0778	-6.4
384.18	1.8780E+6	4.3657	0.0768	-7.1
384.37	1.8790E+6	4.3671	0.0767	-9.8
384.53	1.8800E+6	4.3671	0.0777	-5.1
384.72	1.8810E+6	4.3713	0.0772	-11.9
384.90	1.8820E+6	4.3657	0.0777	-5.1
385.06	1.8830E+6	4.3727	0.0777	-3.4
385.25	1.8840E+6	4.3643	0.0769	+0.7
385.43	1.8850E+6	4.3699	0.0769	-9.2
385.60	1.8860E+6	4.3671	0.0774	-5.1
385.78	1.8870E+6	4.3614	0.0773	-4.8
385.95	1.8880E+6	4.3600	0.0754	-6.4
386.13	1.8890E+6	4.3643	0.0770	-6.5
386.33	1.8900E+6	4.3713	0.0771	-5.1
386.50	1.8910E+6	4.3572	0.0782	-5.4
386.70	1.8920E+6	4.3614	0.0777	-1.7
386.84	1.8930E+6	4.3600	0.0772	-8.2
386.99	1.8940E+6	4.3727	0.0764	-1.0
387.18	1.8950E+6	4.3628	0.0773	-6.8
387.39	1.8960E+6	4.3614	0.0735	-3.4
387.56	1.8970E+6	4.3614	0.0780	-4.4
387.74	1.8980E+6	4.3671	0.0761	-8.9
387.91	1.8990E+6	4.3628	0.0754	-8.2
388.09	1.9000E+6	4.3657	0.0771	-7.9
388.27	1.9010E+6	4.3643	0.0760	-9.2
388.46	1.9020E+6	4.3586	0.0766	-4.4
388.62	1.9030E+6	4.3515	Inf	-8.5
388.79	1.9040E+6	4.3614	0.0773	-8.2
388.97	1.9050E+6	4.3657	0.0775	-3.8
389.14	1.9060E+6	4.3558	0.0759	-2.1
389.32	1.9070E+6	4.3671	0.0750	-7.8
389.52	1.9080E+6	4.3558	0.0775	-3.1
389.70	1.9090E+6	4.3600	0.0756	-2.1
389.89	1.9100E+6	4.3600	0.0754	-5.5
390.05	1.9110E+6	4.3600	0.0755	-7.9
390.22	1.9120E+6	4.3742	0.0756	-6.5
390.39	1.9130E+6	4.3529	0.0774	-2.1
390.60	1.9140E+6	4.3798	0.0770	-3.4
390.79	1.9150E+6	4.3643	0.0772	-7.9
390.97	1.9160E+6	4.3713	0.0750	-4.1
391.17	1.9170E+6	4.3614	0.0749	-1.4
391.33	1.9180E+6	4.3628	0.0763	-9.3
391.52	1.9190E+6	4.3600	0.0748	-3.5
391.70	1.9200E+6	4.3501	0.0750	-5.5
391.87	1.9210E+6	4.3628	0.0757	-8.6
392.05	1.9220E+6	4.3685	0.0765	-3.5
392.22	1.9230E+6	4.3699	0.0747	-6.2
392.40	1.9240E+6	4.3614	0.0752	-10.4
392.53	1.9250E+6	4.3529	0.0759	-4.1
392.70	1.9260E+6	4.3586	0.0753	-6.2
392.90	1.9270E+6	4.3558	0.0763	-4.2
393.08	1.9280E+6	4.3600	0.0746	-5.9
393.26	1.9290E+6	4.3586	0.0749	-5.6
393.43	1.9300E+6	4.3459	0.0760	-4.9
393.61	1.9310E+6	4.3529	0.0739	-9.4
393.80	1.9320E+6	4.3572	0.0758	-5.2
393.98	1.9330E+6	4.3501	0.0742	-6.3
394.16	1.9340E+6	4.3459	0.0744	-6.9
394.35	1.9350E+6	4.3600	0.0756	-3.1
394.51	1.9360E+6	4.3544	0.0762	-4.2
394.69	1.9370E+6	4.3572	0.0739	-4.2
394.88	1.9380E+6	4.3544	0.0751	-4.2
395.06	1.9390E+6	4.3544	0.0742	-5.2
395.24	1.9400E+6	4.3600	0.0764	-8.0
395.43	1.9410E+6	4.3628	0.0739	-4.9
395.59	1.9420E+6	4.3515	0.0745	-9.8
395.77	1.9430E+6	4.3586	0.0749	-4.2
395.93	1.9440E+6	4.3515	0.0741	-7.4
396.11	1.9450E+6	4.3501	0.0735	-6.0
396.27	1.9460E+6	4.3586	0.0754	-3.8
396.46	1.9470E+6	4.3445	0.0751	-4.2
396.62	1.9480E+6	4.3445	0.0740	-3.5
396.81	1.9490E+6	4.3572	0.0749	-5.6
396.99	1.9500E+6	4.3459	0.0741	-4.6
397.17	1.9510E+6	4.3473	0.0739	-6.3
397.34	1.9520E+6	4.3459	0.0742	-2.5
397.49	1.9530E+6	4.3459	0.0730	-8.8
397.65	1.9540E+6	4.3515	0.0761	-2.5
397.82	1.9550E+6	4.3459	0.0749	-3.9
398.00	1.9560E+6	4.3515	0.0732	-7.8
398.19	1.9570E+6	4.3558	0.0748	-3.5
398.39	1.9580E+6	4.3558	0.0737	-2.5
398.57	1.9590E+6	4.3544	0.0734	-2.1
398.72	1.9600E+6	4.3459	0.0736	-7.4
398.88	1.9610E+6	4.3544	0.0741	-7.4
399.05	1.9620E+6	4.3402	0.0740	-7.8
399.22	1.9630E+6	4.3487	0.0725	-7.7
399.43	1.9640E+6	4.3445	0.0739	-10.3
399.62	1.9650E+6	4.3515	0.0733	-1.8
399.78	1.9660E+6	4.3614	0.0737	-3.2
399.95	1.9670E+6	4.3360	0.0741	-8.2
400.13	1.9680E+6	4.3459	0.0727	-6.4
400.33	1.9690E+6	4.3445	0.0749	-3.2
400.51	1.9700E+6	4.3501	0.0743	-5.7
400.68	1.9710E+6	4.3445	0.0738	-8.2
400.85	1.9720E+6	4.3544	0.0733	-7.1
401.01	1.9730E+6	4.3445	0.0741	-7.8
401.18	1.9740E+6	4.3416	0.0732	-7.4
401.36	1.9750E+6	4.3459	0.0730	-8.6
401.55	1.9760E+6	4.3445	0.0732	-2.9
401.73	1.9770E+6	4.3501	0.0726	-12.5
401.90	1.9780E+6	4.3445	0.0719	-3.6
402.05	1.9790E+6	4.3445	0.0731	-8.2
402.23	1.9800E+6	4.3487	0.0717	-6.1
402.41	1.9810E+6	4.3332	0.0730	-3.6
402.61	1.9820E+6	4.3416	0.0728	-4.7
402.78	1.9830E+6	4.3473	0.0727	-5.4
402.98	1.9840E+6	4.3388	0.0725	-2.9
403.14	1.9850E+6	4.3487	0.0730	-5.0
403.34	1.9860E+6	4.3430	0.0717	-6.4
403.53	1.9870E+6	4.3430	0.0730	-6.8
403.71	1.9880E+6	4.3374	0.0726	-4.3
403.91	1.9890E+6	4.3416	0.0730	-7.2
404.09	1.9900E+6	4.3430	0.0714	-4.3
404.31	1.9910E+6	4.3360	0.0720	-5.8
404.51	1.9920E+6	4.3459	0.0725	-4.7
404.67	1.9930E+6	4.3416	0.0734	-3.9
404.87	1.9940E+6	4.3388	0.0736	-5.7
405.02	1.9950E+6	4.3374	0.0725	-3.9
405.21	1.9960E+6	4.3332	0.0738	-3.9
405.40	1.9970E+6	4.3445	0.0720	-9.4
405.61	1.9980E+6	4.3332	0.0726	-5.0
405.77	1.9990E+6	4.3473	0.0721	-6.5
405.95	2.0000E+6	4.3402	0.0733	-5.7
