#date: 15.10.2020	time: 14:50:43
#t (s)	f (Hz)	A1 (V)	A2 (V)	phase (deg)
16.36	1.0000E+1	1.5223	0.0007	+148.4
16.66	5.1000E+2	2.3695	Inf	+Inf
16.87	1.0100E+3	2.3680	Inf	+Inf
17.11	1.5100E+3	2.3818	Inf	+Inf
17.39	2.0100E+3	2.4013	Inf	+Inf
17.64	2.5100E+3	2.4241	Inf	+Inf
17.85	3.0100E+3	2.4539	Inf	+Inf
18.19	3.5100E+3	2.4880	0.1587	+125.6
18.44	4.0100E+3	2.5245	0.1788	+131.4
18.65	4.5100E+3	2.5614	0.1987	+137.7
18.87	5.0100E+3	2.6027	0.2144	+137.9
19.09	5.5100E+3	2.6427	0.2311	+140.7
19.32	6.0100E+3	2.6822	0.2447	+142.5
19.54	6.5100E+3	2.7243	0.2593	+146.5
19.77	7.0100E+3	2.7687	0.2739	+151.3
19.98	7.5100E+3	2.8154	0.2850	+154.4
20.20	8.0100E+3	2.8624	0.2953	+159.0
20.41	8.5100E+3	2.9064	0.3062	+158.8
20.65	9.0100E+3	2.9519	0.3146	+161.3
20.86	9.5100E+3	2.9945	0.3234	+165.1
21.08	1.0010E+4	3.0321	0.3300	+167.2
21.30	1.0510E+4	3.0680	0.3374	+169.2
21.53	1.1010E+4	3.1028	0.3434	+173.1
21.75	1.1510E+4	3.1349	0.3502	+173.3
21.98	1.2010E+4	3.1687	0.3555	+174.4
22.20	1.2510E+4	3.2042	0.3605	+176.2
22.41	1.3010E+4	3.2374	0.3629	+178.0
22.64	1.3510E+4	3.2707	0.3668	-176.3
22.86	1.4010E+4	3.3046	0.3708	-178.9
23.09	1.4510E+4	3.3346	0.3738	-175.7
23.33	1.5010E+4	3.3613	0.3761	-174.4
23.56	1.5510E+4	3.3889	0.3771	-172.2
23.76	1.6010E+4	3.4169	0.3789	-173.5
23.99	1.6510E+4	3.4429	0.3808	-171.6
24.23	1.7010E+4	3.4660	0.3829	-168.0
24.44	1.7510E+4	3.4890	0.3825	-166.9
24.62	1.8010E+4	3.5064	0.3818	-161.0
24.82	1.8510E+4	3.5215	0.3806	-166.6
25.02	1.9010E+4	3.5461	0.3815	-161.8
25.21	1.9510E+4	3.5655	0.3819	-162.9
25.41	2.0010E+4	3.5894	0.3807	-161.6
25.61	2.0510E+4	3.6118	0.3810	-160.8
25.80	2.1010E+4	3.6355	0.3807	-159.5
26.00	2.1510E+4	3.6574	0.3801	-157.7
26.22	2.2010E+4	3.6794	0.3791	-159.0
26.42	2.2510E+4	3.6952	0.3783	-154.7
26.62	2.3010E+4	3.7147	0.3774	-156.7
26.84	2.3510E+4	3.7313	0.3760	-154.1
27.05	2.4010E+4	3.7444	0.3744	-155.1
27.25	2.4510E+4	3.7628	0.3740	-149.2
27.45	2.5010E+4	3.7785	0.3719	-151.4
27.68	2.5510E+4	3.7924	0.3702	-150.8
27.87	2.6010E+4	3.8096	0.3687	-149.1
28.10	2.6510E+4	3.8235	0.3670	-149.2
28.28	2.7010E+4	3.8397	0.3654	-148.8
28.50	2.7510E+4	3.8536	0.3625	-146.6
28.70	2.8010E+4	3.8663	0.3613	-146.6
28.90	2.8510E+4	3.8836	0.3591	-144.1
29.10	2.9010E+4	3.8971	0.3575	-142.4
29.33	2.9510E+4	3.9095	0.3554	-143.1
29.51	3.0010E+4	3.9198	0.3534	-144.7
29.73	3.0510E+4	3.9321	0.3520	-143.8
29.95	3.1010E+4	3.9452	0.3494	-140.0
30.14	3.1510E+4	3.9550	0.3475	-140.5
30.38	3.2010E+4	3.9696	0.3452	-142.7
30.59	3.2510E+4	3.9807	0.3432	-139.6
30.83	3.3010E+4	3.9946	0.3406	-142.2
31.03	3.3510E+4	4.0063	0.3398	-138.4
31.23	3.4010E+4	4.0189	0.3364	-137.0
31.43	3.4510E+4	4.0264	0.3363	-133.6
31.61	3.5010E+4	4.0362	0.3336	-138.2
31.82	3.5510E+4	4.0448	0.3307	-136.9
32.04	3.6010E+4	4.0537	0.3289	-136.4
32.26	3.6510E+4	4.0680	0.3264	-135.7
32.49	3.7010E+4	4.0749	0.3254	-135.8
32.67	3.7510E+4	4.0830	0.3223	-133.3
32.89	3.8010E+4	4.0903	0.3202	-135.2
33.12	3.8510E+4	4.1007	0.3186	-134.2
33.30	3.9010E+4	4.1111	0.3166	-134.8
33.52	3.9510E+4	4.1182	0.3145	-133.1
33.76	4.0010E+4	4.1284	0.3131	-131.6
33.94	4.0510E+4	4.1363	0.3114	-130.8
34.16	4.1010E+4	4.1424	0.3084	-132.3
34.37	4.1510E+4	4.1446	0.3068	-130.0
34.60	4.2010E+4	4.1552	0.3055	-132.3
34.78	4.2510E+4	4.1637	0.3041	-129.7
34.98	4.3010E+4	4.1674	0.3014	-127.2
35.17	4.3510E+4	4.1772	0.2996	-131.3
35.40	4.4010E+4	4.1837	0.2973	-127.3
35.62	4.4510E+4	4.1902	0.2960	-128.6
35.80	4.5010E+4	4.1957	0.2946	-128.8
36.00	4.5510E+4	4.1996	0.2922	-129.7
36.22	4.6010E+4	4.2039	0.2908	-124.0
36.41	4.6510E+4	4.2125	0.2884	-128.8
36.62	4.7010E+4	4.2165	0.2868	-127.3
36.81	4.7510E+4	4.2237	0.2846	-124.9
37.02	4.8010E+4	4.2298	0.2828	-126.5
37.25	4.8510E+4	4.2325	0.2813	-125.3
37.46	4.9010E+4	4.2359	0.2797	-126.6
37.66	4.9510E+4	4.2435	0.2780	-126.3
37.88	5.0010E+4	4.2500	0.2751	-124.9
38.08	5.0510E+4	4.2507	0.2747	-124.2
38.30	5.1010E+4	4.2555	0.2729	-121.6
38.49	5.1510E+4	4.2589	0.2706	-124.8
38.73	5.2010E+4	4.2647	0.2695	-123.9
38.91	5.2510E+4	4.2706	0.2675	-126.4
39.13	5.3010E+4	4.2730	0.2662	-123.0
39.34	5.3510E+4	4.2783	0.2655	-123.9
39.52	5.4010E+4	4.2808	0.2638	-121.4
39.72	5.4510E+4	4.2863	0.2625	-121.9
39.96	5.5010E+4	4.2865	0.2604	-118.7
40.16	5.5510E+4	4.2927	0.2597	-123.7
40.34	5.6010E+4	4.2979	0.2586	-120.3
40.54	5.6510E+4	4.3013	0.2558	-120.6
40.74	5.7010E+4	4.3015	0.2554	-122.2
40.92	5.7510E+4	4.3077	0.2532	-122.2
41.14	5.8010E+4	4.3081	0.2519	-120.9
41.34	5.8510E+4	4.3146	0.2506	-116.7
41.57	5.9010E+4	4.3155	0.2484	-119.6
41.79	5.9510E+4	4.3162	0.2470	-120.7
41.99	6.0010E+4	4.3227	0.2446	-121.3
42.19	6.0510E+4	4.3245	0.2428	-115.6
42.40	6.1010E+4	4.3235	0.2413	-118.8
42.60	6.1510E+4	4.3306	0.2398	-122.3
42.80	6.2010E+4	4.3316	0.2382	-116.9
43.00	6.2510E+4	4.3382	0.2371	-114.7
43.18	6.3010E+4	4.3426	0.2352	-121.4
43.40	6.3510E+4	4.3405	0.2344	-115.8
43.62	6.4010E+4	4.3456	0.2325	-117.7
43.85	6.4510E+4	4.3480	0.2314	-117.5
44.03	6.5010E+4	4.3484	0.2303	-118.3
44.23	6.5510E+4	4.3493	0.2288	-115.0
44.43	6.6010E+4	4.3531	0.2275	-114.3
44.63	6.6510E+4	4.3571	0.2263	-116.7
44.83	6.7010E+4	4.3604	0.2253	-116.4
45.05	6.7510E+4	4.3631	0.2244	-121.8
45.23	6.8010E+4	4.3595	0.2230	-116.1
45.43	6.8510E+4	4.3671	0.2213	-111.4
45.65	6.9010E+4	4.3667	0.2210	-112.3
45.83	6.9510E+4	4.3702	0.2203	-112.3
46.05	7.0010E+4	4.3739	0.2190	-118.1
46.24	7.0510E+4	4.3705	0.2181	-115.4
46.44	7.1010E+4	4.3747	0.2169	-116.1
46.66	7.1510E+4	4.3740	0.2154	-114.4
46.88	7.2010E+4	4.3780	0.2144	-108.8
47.06	7.2510E+4	4.3831	0.2136	-115.4
47.27	7.3010E+4	4.3822	0.2131	-113.4
47.46	7.3510E+4	4.3869	0.2110	-112.1
47.67	7.4010E+4	4.3859	0.2101	-115.7
47.86	7.4510E+4	4.3892	0.2085	-119.7
48.08	7.5010E+4	4.3906	0.2079	-111.3
48.26	7.5510E+4	4.3931	0.2072	-112.1
48.44	7.6010E+4	4.3930	0.2065	-116.1
48.64	7.6510E+4	4.3995	0.2051	-110.8
48.87	7.7010E+4	4.3927	0.2041	-113.5
49.10	7.7510E+4	4.3988	0.2033	-113.4
49.30	7.8010E+4	4.3975	0.2018	-107.4
49.54	7.8510E+4	4.4019	0.2011	-116.1
49.75	7.9010E+4	4.4006	0.2012	-116.5
49.94	7.9510E+4	4.4026	0.1996	-112.3
50.14	8.0010E+4	4.4060	0.1982	-113.6
50.34	8.0510E+4	4.4047	0.1973	-111.7
50.52	8.1010E+4	4.4043	0.1971	-111.9
50.72	8.1510E+4	4.4097	0.1955	-108.6
50.92	8.2010E+4	4.4085	0.1956	-115.3
51.10	8.2510E+4	4.4074	0.1936	-111.2
51.30	8.3010E+4	4.4146	0.1939	-110.2
51.48	8.3510E+4	4.4155	0.1915	-103.7
51.70	8.4010E+4	4.4170	0.1912	-108.6
51.88	8.4510E+4	4.4239	0.1903	-111.9
52.06	8.5010E+4	4.4190	0.1896	-112.2
52.27	8.5510E+4	4.4200	0.1890	-107.7
52.45	8.6010E+4	4.4231	0.1882	-105.5
52.65	8.6510E+4	4.4232	0.1875	-110.6
52.85	8.7010E+4	4.4251	0.1866	-103.3
53.05	8.7510E+4	4.4273	0.1856	-107.7
53.28	8.8010E+4	4.4258	0.1854	-107.0
53.48	8.8510E+4	4.4293	0.1845	-110.8
53.70	8.9010E+4	4.4249	0.1838	-104.3
53.90	8.9510E+4	4.4299	0.1832	-106.6
54.11	9.0010E+4	4.4334	0.1820	-108.9
54.31	9.0510E+4	4.4283	0.1808	-110.6
54.53	9.1010E+4	4.4309	0.1806	-108.6
54.71	9.1510E+4	4.4323	0.1793	-106.4
54.93	9.2010E+4	4.4370	0.1791	-107.3
55.11	9.2510E+4	4.4379	0.1777	-106.7
55.31	9.3010E+4	4.4351	0.1770	-107.7
55.51	9.3510E+4	4.4343	0.1771	-112.4
55.69	9.4010E+4	4.4396	0.1759	-103.7
55.89	9.4510E+4	4.4394	0.1744	-105.1
56.11	9.5010E+4	4.4389	0.1741	-101.1
56.29	9.5510E+4	4.4436	0.1732	-100.0
56.49	9.6010E+4	4.4454	0.1720	-106.5
56.67	9.6510E+4	4.4444	0.1715	-109.1
56.89	9.7010E+4	4.4469	0.1702	-106.1
57.10	9.7510E+4	4.4437	0.1700	-106.4
57.29	9.8010E+4	4.4478	0.1683	-105.0
57.49	9.8510E+4	4.4464	0.1675	-107.2
57.70	9.9010E+4	4.4491	0.1694	-113.4
57.90	9.9510E+4	4.4519	0.1671	-103.9
58.12	1.0001E+5	4.4491	0.1656	-107.4
58.32	1.0051E+5	4.4500	0.1652	-106.5
58.50	1.0101E+5	4.4498	0.1644	-106.7
58.72	1.0151E+5	4.4538	0.1647	-103.2
58.90	1.0201E+5	4.4583	0.1642	-106.0
59.10	1.0251E+5	4.4508	0.1625	-101.7
59.33	1.0301E+5	4.4546	0.1617	-107.3
59.53	1.0351E+5	4.4566	0.1613	-107.5
59.73	1.0401E+5	4.4545	0.1608	-102.7
59.93	1.0451E+5	4.4596	0.1610	-104.3
60.13	1.0501E+5	4.4582	0.1591	-104.2
60.33	1.0551E+5	4.4593	0.1593	-103.1
60.51	1.0601E+5	4.4617	0.1584	-106.6
60.71	1.0651E+5	4.4609	0.1582	-104.0
60.91	1.0701E+5	4.4590	0.1575	-104.2
61.13	1.0751E+5	4.4599	0.1568	-103.0
61.31	1.0801E+5	4.4630	0.1567	-102.9
61.49	1.0851E+5	4.4674	0.1551	-104.8
61.70	1.0901E+5	4.4626	0.1550	-102.1
61.88	1.0951E+5	4.4610	0.1553	-103.3
62.06	1.1001E+5	4.4644	0.1547	-105.4
62.26	1.1051E+5	4.4679	0.1540	-102.8
62.44	1.1101E+5	4.4631	0.1533	-99.6
62.64	1.1151E+5	4.4669	0.1525	-101.0
62.83	1.1201E+5	4.4688	0.1525	-101.6
63.01	1.1251E+5	4.4693	0.1523	-103.6
63.19	1.1301E+5	4.4678	0.1512	-104.3
63.39	1.1351E+5	4.4675	0.1506	-103.2
63.61	1.1401E+5	4.4689	0.1521	-109.0
63.81	1.1451E+5	4.4710	0.1490	-103.7
64.01	1.1501E+5	4.4719	0.1493	-104.7
64.21	1.1551E+5	4.4767	0.1491	-101.5
64.42	1.1601E+5	4.4672	0.1482	-103.3
64.61	1.1651E+5	4.4753	0.1486	-106.1
64.79	1.1701E+5	4.4771	0.1464	-97.5
64.99	1.1751E+5	4.4753	0.1475	-103.9
65.19	1.1801E+5	4.4708	0.1462	-103.3
65.39	1.1851E+5	4.4760	0.1464	-101.4
65.59	1.1901E+5	4.4754	0.1456	-101.8
65.80	1.1951E+5	4.4751	0.1444	-102.8
66.00	1.2001E+5	4.4746	0.1446	-98.0
66.18	1.2051E+5	4.4782	0.1443	-98.1
66.37	1.2101E+5	4.4822	0.1445	-107.0
66.55	1.2151E+5	4.4829	0.1436	-100.8
66.73	1.2201E+5	4.4773	0.1429	-106.3
66.93	1.2251E+5	4.4801	0.1429	-104.5
67.12	1.2301E+5	4.4831	0.1420	-110.7
67.33	1.2351E+5	4.4833	0.1419	-100.1
67.53	1.2401E+5	4.4770	0.1408	-103.5
67.73	1.2451E+5	4.4821	0.1414	-105.4
67.92	1.2501E+5	4.4840	0.1404	-102.9
68.15	1.2551E+5	4.4811	0.1405	-98.8
68.36	1.2601E+5	4.4867	0.1395	-105.3
68.56	1.2651E+5	4.4832	0.1401	-102.4
68.75	1.2701E+5	4.4835	0.1384	-105.7
68.95	1.2751E+5	4.4838	0.1399	-100.9
69.16	1.2801E+5	4.4816	0.1378	-100.0
69.40	1.2851E+5	4.4884	0.1378	-117.1
69.59	1.2901E+5	4.4811	0.1374	-101.5
69.81	1.2951E+5	4.4879	0.1368	-104.6
70.01	1.3001E+5	4.4860	0.1365	-102.6
70.19	1.3051E+5	4.4866	0.1357	-100.1
70.39	1.3101E+5	4.4870	0.1371	-101.3
70.59	1.3151E+5	4.4859	0.1347	-98.4
70.79	1.3201E+5	4.4879	0.1344	-101.6
70.97	1.3251E+5	4.4860	0.1342	-109.1
71.16	1.3301E+5	4.4863	0.1346	-94.2
71.34	1.3351E+5	4.4894	0.1334	-99.4
71.54	1.3401E+5	4.4880	0.1329	-102.5
71.72	1.3451E+5	4.4887	0.1326	-97.6
71.91	1.3501E+5	4.4894	0.1336	-98.4
72.09	1.3551E+5	4.4917	0.1321	-98.6
72.31	1.3601E+5	4.4920	0.1327	-88.9
72.52	1.3651E+5	4.4925	0.1317	-95.0
72.72	1.3701E+5	4.4937	0.1310	-106.4
72.90	1.3751E+5	4.4956	0.1303	-100.4
73.12	1.3801E+5	4.4949	0.1290	-99.8
73.32	1.3851E+5	4.4993	0.1295	-100.3
73.52	1.3901E+5	4.4914	0.1292	-97.2
73.72	1.3951E+5	4.4968	0.1304	-103.8
73.92	1.4001E+5	4.4978	0.1283	-101.5
74.12	1.4051E+5	4.4958	0.1308	-101.9
74.32	1.4101E+5	4.5005	0.1282	-98.7
74.52	1.4151E+5	4.4989	0.1278	-98.8
74.72	1.4201E+5	4.4973	0.1272	-99.1
74.90	1.4251E+5	4.4965	0.1271	-98.7
75.08	1.4301E+5	4.4990	0.1275	-102.4
75.27	1.4351E+5	4.5023	0.1265	-97.1
75.47	1.4401E+5	4.4955	0.1264	-106.7
75.65	1.4451E+5	4.4996	0.1259	-98.1
75.83	1.4501E+5	4.5012	0.1253	-97.9
76.01	1.4551E+5	4.5002	0.1250	-98.3
76.21	1.4601E+5	4.4995	0.1252	-103.6
76.40	1.4651E+5	4.4993	0.1253	-96.5
76.60	1.4701E+5	4.5019	0.1254	-96.0
76.78	1.4751E+5	4.5030	0.1241	-97.7
76.98	1.4801E+5	4.4983	0.1232	-99.6
77.20	1.4851E+5	4.5047	0.1232	-105.8
77.38	1.4901E+5	4.5030	0.1235	-96.2
77.56	1.4951E+5	4.5016	0.1224	-96.9
77.74	1.5001E+5	4.5034	0.1221	-97.4
77.94	1.5051E+5	4.5050	0.1215	-96.5
78.13	1.5101E+5	4.5072	0.1218	-100.9
78.31	1.5151E+5	4.5016	0.1217	-95.2
78.51	1.5201E+5	4.4997	0.1231	-101.0
78.71	1.5251E+5	4.5050	0.1210	-99.9
78.91	1.5301E+5	4.5054	0.1207	-91.9
79.11	1.5351E+5	4.5109	0.1206	-95.7
79.29	1.5401E+5	4.5061	0.1220	-94.0
79.51	1.5451E+5	4.5078	0.1201	-95.9
79.72	1.5501E+5	4.5088	0.1190	-100.4
79.92	1.5551E+5	4.5068	0.1184	-97.1
80.11	1.5601E+5	4.5009	0.1191	-95.6
80.29	1.5651E+5	4.5021	0.1183	-102.7
80.47	1.5701E+5	4.5082	0.1184	-100.4
80.66	1.5751E+5	4.5079	0.1181	-97.1
80.84	1.5801E+5	4.5159	0.1175	-96.7
81.05	1.5851E+5	4.5085	0.1165	-98.3
81.29	1.5901E+5	4.5074	0.1168	-93.7
81.49	1.5951E+5	4.5112	0.1165	-94.4
81.70	1.6001E+5	4.5094	0.1170	-97.9
81.90	1.6051E+5	4.5096	0.1171	-95.2
82.08	1.6101E+5	4.5123	0.1170	-101.9
82.28	1.6151E+5	4.5142	0.1158	-101.5
82.48	1.6201E+5	4.5113	0.1156	-94.0
82.68	1.6251E+5	4.5149	0.1155	-100.0
82.88	1.6301E+5	4.5113	0.1161	-100.4
83.08	1.6351E+5	4.5120	0.1151	-95.3
83.32	1.6401E+5	4.5142	0.1142	-98.5
83.50	1.6451E+5	4.5156	0.1143	-102.8
83.68	1.6501E+5	4.5128	0.1142	-97.0
83.86	1.6551E+5	4.5142	0.1141	-101.0
84.05	1.6601E+5	4.5113	0.1135	-103.2
84.26	1.6651E+5	4.5177	0.1145	-100.4
84.48	1.6701E+5	4.5170	0.1142	-101.2
84.66	1.6751E+5	4.5128	0.1137	-94.6
84.88	1.6801E+5	4.5128	0.1138	-101.9
85.06	1.6851E+5	4.5170	0.1126	-90.7
85.25	1.6901E+5	4.5170	0.1132	-96.3
85.43	1.6951E+5	4.5170	0.1128	-99.6
85.61	1.7001E+5	4.5128	0.1137	-105.4
85.79	1.7051E+5	4.5113	0.1121	-98.5
86.03	1.7101E+5	4.5176	0.1132	-97.6
86.25	1.7151E+5	4.5212	0.1110	-100.2
86.44	1.7201E+5	4.5156	0.1109	-96.1
86.62	1.7251E+5	4.5184	0.1116	-99.0
86.83	1.7301E+5	4.5128	0.1111	-91.8
87.01	1.7351E+5	4.5198	0.1113	-94.5
87.19	1.7401E+5	4.5184	0.1117	-87.5
87.37	1.7451E+5	4.5156	0.1102	-98.1
87.57	1.7501E+5	4.5156	0.1106	-92.4
87.76	1.7551E+5	4.5170	0.1093	-102.6
87.95	1.7601E+5	4.5184	0.1103	-100.2
88.16	1.7651E+5	4.5227	0.1132	+279.3
88.35	1.7701E+5	4.5184	0.1090	-95.5
88.55	1.7751E+5	4.5212	0.1092	-98.4
88.74	1.7801E+5	4.5184	0.1103	-100.2
88.94	1.7851E+5	4.5142	0.1095	-101.2
89.14	1.7901E+5	4.5184	0.1091	-96.3
89.32	1.7951E+5	4.5198	0.1097	-98.8
89.52	1.8001E+5	4.5184	0.1090	-93.0
89.72	1.8051E+5	4.5227	0.1102	-98.2
89.92	1.8101E+5	4.5212	0.1076	-100.0
90.12	1.8151E+5	4.5198	Inf	-89.5
90.30	1.8201E+5	4.5198	0.1083	-95.7
90.52	1.8251E+5	4.5198	0.1086	-104.7
90.70	1.8301E+5	4.5198	0.1080	-103.0
90.90	1.8351E+5	4.5198	0.1074	-96.3
91.08	1.8401E+5	4.5241	0.1079	-93.5
91.27	1.8451E+5	4.5227	0.1077	-103.8
91.46	1.8501E+5	4.5255	0.1063	-95.0
91.67	1.8551E+5	4.5255	0.1070	-103.4
91.86	1.8601E+5	4.5255	0.1074	-98.9
92.05	1.8651E+5	4.5255	0.1059	-88.8
92.25	1.8701E+5	4.5212	0.1061	-103.0
92.43	1.8751E+5	4.5269	0.1064	-97.5
92.61	1.8801E+5	4.5241	0.1069	-93.4
92.81	1.8851E+5	4.5198	0.1078	-106.9
92.99	1.8901E+5	4.5212	0.1050	-99.5
93.19	1.8951E+5	4.5212	0.1061	-100.3
93.39	1.9001E+5	4.5212	0.1047	-100.3
93.61	1.9051E+5	4.5184	0.1053	-101.9
93.79	1.9101E+5	4.5255	0.1060	-95.6
93.99	1.9151E+5	4.5255	0.1058	-97.1
94.17	1.9201E+5	4.5198	0.1043	-92.1
94.37	1.9251E+5	4.5283	0.1038	-96.9
94.57	1.9301E+5	4.5255	0.1065	-92.4
94.77	1.9351E+5	4.5255	0.1054	-90.7
94.96	1.9401E+5	4.5269	0.1051	-96.8
95.16	1.9451E+5	4.5255	0.1041	-101.4
95.34	1.9501E+5	4.5269	0.1013	-90.7
95.54	1.9551E+5	4.5255	0.1041	-91.4
95.74	1.9601E+5	4.5241	0.1043	-88.0
95.92	1.9651E+5	4.5255	0.1036	-103.3
96.12	1.9701E+5	4.5269	0.1031	-103.1
96.31	1.9751E+5	4.5269	0.1008	-93.9
96.50	1.9801E+5	4.5255	0.1040	-96.5
96.70	1.9851E+5	4.5241	0.1031	-103.6
96.90	1.9901E+5	4.5241	0.1020	-96.4
97.10	1.9951E+5	4.5283	0.1021	-92.2
97.28	2.0001E+5	4.5255	0.1033	-100.6
97.48	2.0051E+5	4.5283	0.1039	-93.4
97.67	2.0101E+5	4.5311	0.1026	-91.8
97.85	2.0151E+5	4.5283	0.1031	-102.9
98.05	2.0201E+5	4.5255	0.1020	-97.6
98.25	2.0251E+5	4.5283	0.1038	-95.3
98.47	2.0301E+5	4.5297	0.1029	-96.3
98.65	2.0351E+5	4.5241	0.1026	-98.0
98.83	2.0401E+5	4.5297	0.1013	-103.7
99.03	2.0451E+5	4.5311	0.1015	-101.1
99.22	2.0501E+5	4.5269	0.1007	-97.3
99.41	2.0551E+5	4.5255	0.1015	-97.7
99.61	2.0601E+5	4.5283	0.1023	-91.9
99.80	2.0651E+5	4.5269	0.1015	-102.5
99.98	2.0701E+5	4.5269	0.1006	-92.4
100.18	2.0751E+5	4.5326	0.1006	-95.2
100.36	2.0801E+5	4.5326	0.1007	-98.8
100.55	2.0851E+5	4.5311	0.1010	-102.6
100.73	2.0901E+5	4.5283	0.1021	-105.6
100.93	2.0951E+5	4.5269	0.1007	-104.9
101.13	2.1001E+5	4.5283	0.1018	-102.9
101.33	2.1051E+5	4.5283	0.1007	-96.3
101.53	2.1101E+5	4.5297	0.1004	-97.9
101.71	2.1151E+5	4.5326	0.1000	-89.8
101.89	2.1201E+5	4.5354	0.1011	-107.9
102.08	2.1251E+5	4.5297	0.1018	-93.9
102.28	2.1301E+5	4.5326	0.1006	-95.1
102.47	2.1351E+5	4.5326	0.0994	-87.7
102.67	2.1401E+5	4.5326	0.1004	-109.4
102.87	2.1451E+5	4.5297	0.0997	-97.3
103.09	2.1501E+5	4.5326	0.0983	-99.7
103.27	2.1551E+5	4.5297	0.0995	-93.8
103.46	2.1601E+5	4.5269	0.1005	-103.6
103.66	2.1651E+5	4.5340	0.0988	-99.9
103.86	2.1701E+5	4.5340	0.1005	-94.1
104.07	2.1751E+5	4.5340	0.0986	-91.9
104.27	2.1801E+5	4.5311	0.0978	-83.8
104.47	2.1851E+5	4.5340	0.0992	-105.1
104.67	2.1901E+5	4.5354	0.0979	-98.1
104.87	2.1951E+5	4.5340	0.0992	-94.4
105.07	2.2001E+5	4.5382	0.0977	-104.6
105.27	2.2051E+5	4.5326	0.0988	-90.8
105.47	2.2101E+5	4.5297	0.0986	-104.8
105.65	2.2151E+5	4.5326	0.0982	-96.9
105.85	2.2201E+5	4.5326	0.0989	-99.1
106.07	2.2251E+5	4.5326	0.0979	-100.9
106.27	2.2301E+5	4.5311	0.0995	-106.7
106.47	2.2351E+5	4.5326	0.0983	-90.6
106.67	2.2401E+5	4.5283	0.0984	-101.9
106.87	2.2451E+5	4.5283	0.0979	-102.7
107.08	2.2501E+5	4.5368	0.0972	-96.2
107.26	2.2551E+5	4.5326	0.0970	-98.2
107.46	2.2601E+5	4.5382	0.0993	-92.8
107.68	2.2651E+5	4.5326	0.0993	-111.9
107.86	2.2701E+5	4.5340	0.0992	-105.8
108.05	2.2751E+5	4.5354	0.0980	-96.0
108.25	2.2801E+5	4.5340	0.0978	-100.4
108.43	2.2851E+5	4.5297	0.0977	-106.2
108.61	2.2901E+5	4.5368	0.0978	-100.6
108.80	2.2951E+5	4.5354	0.0980	-99.5
108.98	2.3001E+5	4.5326	0.0976	-101.7
109.16	2.3051E+5	4.5311	0.0971	-101.3
109.34	2.3101E+5	4.5382	0.0963	-90.2
109.54	2.3151E+5	4.5368	0.0980	-104.5
109.74	2.3201E+5	4.5368	0.0975	-93.6
109.93	2.3251E+5	4.5326	0.0968	-102.2
110.12	2.3301E+5	4.5340	0.0996	-96.9
110.33	2.3351E+5	4.5368	0.0968	-98.0
110.52	2.3401E+5	4.5311	0.0969	-95.1
110.71	2.3451E+5	4.5382	0.0989	-96.5
110.91	2.3501E+5	4.5340	0.0968	-102.5
111.11	2.3551E+5	4.5368	0.0969	-94.7
111.31	2.3601E+5	4.5368	0.0962	-103.1
111.50	2.3651E+5	4.5326	0.0972	-105.8
111.70	2.3701E+5	4.5368	0.0970	-105.5
111.89	2.3751E+5	4.5439	0.0953	-96.0
112.12	2.3801E+5	4.5396	0.0964	-104.3
112.34	2.3851E+5	4.5326	0.0958	-100.1
112.52	2.3901E+5	4.5396	0.0970	-103.7
112.72	2.3951E+5	4.5382	0.0977	-94.0
112.90	2.4001E+5	4.5368	0.0967	-111.3
113.10	2.4051E+5	4.5396	0.0976	-106.9
113.30	2.4101E+5	4.5382	0.0959	-97.4
113.50	2.4151E+5	4.5382	0.0986	-104.4
113.70	2.4201E+5	4.5396	0.0973	-98.7
113.90	2.4251E+5	4.5396	0.0968	-104.5
114.10	2.4301E+5	4.5368	0.0975	-89.8
114.30	2.4351E+5	4.5425	0.0969	-101.6
114.50	2.4401E+5	4.5382	0.0962	-96.4
114.72	2.4451E+5	4.5382	0.0995	+262.4
114.92	2.4501E+5	4.5354	0.0975	-103.3
115.11	2.4551E+5	4.5354	0.0963	-99.5
115.33	2.4601E+5	4.5396	0.0967	-106.2
115.51	2.4651E+5	4.5439	0.0974	-102.4
115.73	2.4701E+5	4.5368	0.0964	-108.3
115.95	2.4751E+5	4.5410	0.0949	-97.4
116.16	2.4801E+5	4.5382	0.0988	-102.1
116.40	2.4851E+5	4.5354	0.0945	-101.0
116.59	2.4901E+5	4.5425	0.0956	-100.4
116.81	2.4951E+5	4.5396	0.0950	-101.0
117.04	2.5001E+5	4.5368	0.0962	-102.4
117.24	2.5051E+5	4.5410	0.0963	-95.4
117.44	2.5101E+5	4.5382	0.0978	+255.1
117.67	2.5151E+5	4.5382	0.0957	-92.3
117.87	2.5201E+5	4.5382	0.0975	-104.9
118.08	2.5251E+5	4.5396	0.0990	-96.3
118.27	2.5301E+5	4.5410	0.0965	-98.9
118.49	2.5351E+5	4.5425	0.0956	-90.7
118.67	2.5401E+5	4.5425	0.0978	-96.2
118.89	2.5451E+5	4.5396	0.0959	-106.0
119.12	2.5501E+5	4.5396	0.0938	-101.8
119.32	2.5551E+5	4.5382	0.0988	-88.7
119.54	2.5601E+5	4.5382	0.0951	-97.2
119.74	2.5651E+5	4.5425	0.1000	-94.8
119.95	2.5701E+5	4.5396	0.0963	-99.4
120.19	2.5751E+5	4.5410	0.0987	-92.5
120.40	2.5801E+5	4.5354	0.0985	-92.2
120.60	2.5851E+5	4.5368	0.0952	-97.2
120.80	2.5901E+5	4.5453	0.0983	-94.7
121.02	2.5951E+5	4.5425	0.0955	-102.5
121.23	2.6001E+5	4.5396	0.0952	-94.4
121.45	2.6051E+5	4.5439	0.0938	-106.1
121.68	2.6101E+5	4.5396	0.0986	-101.3
121.90	2.6151E+5	4.5368	0.0966	-100.1
122.10	2.6201E+5	4.5396	0.0983	-97.8
122.30	2.6251E+5	4.5396	0.0969	-96.4
122.50	2.6301E+5	4.5382	0.0955	-102.8
122.70	2.6351E+5	4.5368	0.0965	-100.9
122.88	2.6401E+5	4.5425	0.0969	-98.2
123.08	2.6451E+5	4.5439	0.0973	-102.1
123.28	2.6501E+5	4.5382	0.0990	+264.1
123.51	2.6551E+5	4.5425	0.0950	-101.0
123.75	2.6601E+5	4.5410	0.0982	-98.7
123.95	2.6651E+5	4.5425	0.0954	-97.4
124.14	2.6701E+5	4.5340	0.0990	-99.6
124.36	2.6751E+5	4.5453	0.0967	-103.7
124.59	2.6801E+5	4.5396	0.0959	-99.2
124.79	2.6851E+5	4.5425	0.0960	-98.1
124.99	2.6901E+5	4.5495	0.0973	-101.3
125.19	2.6951E+5	4.5396	0.0964	-96.3
125.43	2.7001E+5	4.5481	0.0989	-103.8
125.66	2.7051E+5	4.5467	0.0972	-99.5
125.86	2.7101E+5	4.5439	0.0992	-103.1
126.06	2.7151E+5	4.5340	0.0957	-101.2
126.27	2.7201E+5	4.5453	0.0981	-104.6
126.49	2.7251E+5	4.5396	0.0967	-95.9
126.71	2.7301E+5	4.5453	0.0973	-100.9
126.94	2.7351E+5	4.5396	0.0981	-100.6
127.14	2.7401E+5	4.5382	0.0983	-100.4
127.32	2.7451E+5	4.5453	0.1000	+261.8
127.54	2.7501E+5	4.5453	0.0977	-102.8
127.74	2.7551E+5	4.5425	0.0976	-97.1
127.92	2.7601E+5	4.5439	0.0971	-100.4
128.10	2.7651E+5	4.5425	0.0975	-100.3
128.29	2.7701E+5	4.5439	0.0975	-101.2
128.47	2.7751E+5	4.5453	0.0973	-101.0
128.65	2.7801E+5	4.5410	0.0977	-96.9
128.84	2.7851E+5	4.5439	0.0969	-98.8
129.02	2.7901E+5	4.5425	0.1003	-108.4
129.22	2.7951E+5	4.5495	0.0992	-99.8
129.42	2.8001E+5	4.5467	0.0970	-101.4
129.62	2.8051E+5	4.5396	0.0976	-104.6
129.82	2.8101E+5	4.5410	0.0978	-98.2
130.02	2.8151E+5	4.5410	0.1022	-109.0
130.22	2.8201E+5	4.5382	0.1011	-102.9
130.45	2.8251E+5	4.5439	0.1001	-100.3
130.65	2.8301E+5	4.5495	0.0983	-100.2
130.85	2.8351E+5	4.5382	0.1001	-101.7
131.08	2.8401E+5	4.5410	0.0994	-102.4
131.30	2.8451E+5	4.5396	0.0989	-104.5
131.50	2.8501E+5	4.5396	Inf	-471.6
131.68	2.8551E+5	4.5368	0.1019	-104.5
131.88	2.8601E+5	4.5453	0.1009	+266.9
132.11	2.8651E+5	4.5410	0.0990	-99.4
132.31	2.8701E+5	4.5495	0.1025	+264.3
132.51	2.8751E+5	4.5495	0.0996	-103.6
132.71	2.8801E+5	4.5396	0.0982	-99.7
132.93	2.8851E+5	4.5495	0.1005	+267.4
133.16	2.8901E+5	4.5396	0.1020	+252.6
133.39	2.8951E+5	4.5481	0.1027	+262.7
133.61	2.9001E+5	4.5453	0.0996	-101.1
133.81	2.9051E+5	4.5410	0.0995	-104.9
133.99	2.9101E+5	4.5425	0.1002	-100.0
134.19	2.9151E+5	4.5481	0.1003	-102.2
134.37	2.9201E+5	4.5509	0.0997	-101.0
134.56	2.9251E+5	4.5396	0.1009	-99.7
134.76	2.9301E+5	4.5481	0.1012	-98.4
134.99	2.9351E+5	4.5481	0.1011	-110.6
135.19	2.9401E+5	4.5509	0.1010	-104.1
135.37	2.9451E+5	4.5453	0.1021	-105.9
135.57	2.9501E+5	4.5453	0.0997	+259.4
135.77	2.9551E+5	4.5453	0.1018	-99.5
135.97	2.9601E+5	4.5382	Inf	-468.5
136.17	2.9651E+5	4.5467	0.1006	-102.4
136.39	2.9701E+5	4.5410	0.1012	-96.7
136.59	2.9751E+5	4.5410	0.1019	-102.2
136.77	2.9801E+5	4.5467	0.1035	-98.3
136.97	2.9851E+5	4.5509	0.1021	-96.8
137.17	2.9901E+5	4.5396	0.1026	-102.4
137.38	2.9951E+5	4.5453	0.1033	-109.5
137.58	3.0001E+5	4.5467	0.1018	-106.9
137.78	3.0051E+5	4.5439	Inf	-92.2
137.97	3.0101E+5	4.5439	0.1033	-103.2
138.17	3.0151E+5	4.5439	0.1043	-103.7
138.37	3.0201E+5	4.5410	0.1028	-106.0
138.56	3.0251E+5	4.5453	0.1048	-114.8
138.76	3.0301E+5	4.5467	0.1050	-102.8
138.95	3.0351E+5	4.5382	0.1033	-100.0
139.16	3.0401E+5	4.5481	0.1065	-105.0
139.40	3.0451E+5	4.5481	0.1023	-101.9
139.60	3.0501E+5	4.5453	0.1036	-105.0
139.79	3.0551E+5	4.5481	0.1055	-98.8
140.00	3.0601E+5	4.5509	0.1050	-111.1
140.19	3.0651E+5	4.5439	0.1044	-103.7
140.38	3.0701E+5	4.5467	0.1045	-104.2
140.56	3.0751E+5	4.5467	0.1044	-102.6
140.76	3.0801E+5	4.5481	0.1052	-98.5
140.94	3.0851E+5	4.5340	0.1039	-99.9
141.18	3.0901E+5	4.5481	0.1069	-101.1
141.39	3.0951E+5	4.5439	0.1062	-102.6
141.59	3.1001E+5	4.5481	0.1070	-102.7
141.79	3.1051E+5	4.5410	0.1072	-99.5
141.97	3.1101E+5	4.5410	0.1076	-107.2
142.16	3.1151E+5	4.5467	0.1067	-97.7
142.35	3.1201E+5	4.5410	0.1082	-92.6
142.56	3.1251E+5	4.5524	0.1063	-100.0
142.75	3.1301E+5	4.5481	0.1213	-103.6
142.96	3.1351E+5	4.5538	0.1065	-102.2
143.16	3.1401E+5	4.5467	0.1075	-109.8
143.37	3.1451E+5	4.5439	Inf	+248.0
143.56	3.1501E+5	4.5396	0.1092	-110.3
143.79	3.1551E+5	4.5509	0.1080	-100.1
144.00	3.1601E+5	4.5509	0.1089	-101.4
144.20	3.1651E+5	4.5439	0.1096	-105.0
144.39	3.1701E+5	4.5439	0.1053	+264.5
144.59	3.1751E+5	4.5439	0.1059	-107.1
144.78	3.1801E+5	4.5439	0.1101	-105.9
144.98	3.1851E+5	4.5382	0.1076	-108.1
145.20	3.1901E+5	4.5467	0.1113	-108.6
145.41	3.1951E+5	4.5439	0.1084	-107.7
145.62	3.2001E+5	4.5368	0.1081	-102.9
145.83	3.2051E+5	4.5467	0.1103	-99.4
146.05	3.2101E+5	4.5396	0.1065	-105.3
146.26	3.2151E+5	4.5509	0.1118	-106.6
146.48	3.2201E+5	4.5453	0.1168	-102.4
146.68	3.2251E+5	4.5368	0.1135	-105.1
146.90	3.2301E+5	4.5439	0.1128	-102.4
147.10	3.2351E+5	4.5439	0.1153	-100.9
147.29	3.2401E+5	4.5509	0.1167	-100.4
147.49	3.2451E+5	4.5481	0.1123	-103.5
147.69	3.2501E+5	4.5425	0.1088	-106.0
147.89	3.2551E+5	4.5509	0.1104	-104.8
148.08	3.2601E+5	4.5467	0.1150	-99.1
148.26	3.2651E+5	4.5481	0.1215	-98.7
148.44	3.2701E+5	4.5453	0.1134	-103.0
148.63	3.2751E+5	4.5467	0.1149	-98.7
148.83	3.2801E+5	4.5453	0.1147	-108.2
149.01	3.2851E+5	4.5481	Inf	+248.1
149.19	3.2901E+5	4.5453	0.1142	-102.0
149.37	3.2951E+5	4.5481	0.1174	-103.9
149.57	3.3001E+5	4.5467	0.1167	-108.5
149.76	3.3051E+5	4.5552	0.1120	-107.4
149.96	3.3101E+5	4.5524	0.1186	-101.3
150.16	3.3151E+5	4.5410	0.1142	-100.3
150.36	3.3201E+5	4.5495	0.1194	-108.9
150.56	3.3251E+5	4.5410	0.1202	-105.4
150.76	3.3301E+5	4.5439	0.1156	-105.3
150.96	3.3351E+5	4.5410	0.1204	-102.2
151.16	3.3401E+5	4.5495	0.1161	-97.1
151.35	3.3451E+5	4.5453	0.1219	-102.0
151.55	3.3501E+5	4.5509	0.1144	-98.4
151.75	3.3551E+5	4.5495	0.1204	-102.3
151.95	3.3601E+5	4.5425	0.1188	-108.2
152.17	3.3651E+5	4.5368	0.1226	-102.9
152.38	3.3701E+5	4.5495	0.1237	-104.3
152.59	3.3751E+5	4.5495	0.1235	-103.7
152.77	3.3801E+5	4.5425	0.1232	-106.8
152.95	3.3851E+5	4.5495	0.1283	-105.5
153.15	3.3901E+5	4.5481	0.1195	-100.9
153.35	3.3951E+5	4.5410	0.1245	-106.1
153.55	3.4001E+5	4.5467	0.1227	-105.4
153.75	3.4051E+5	4.5495	0.1437	+255.0
153.95	3.4101E+5	4.5410	0.1268	-106.8
154.15	3.4151E+5	4.5439	0.1229	-100.0
154.35	3.4201E+5	4.5396	0.1294	-106.7
154.56	3.4251E+5	4.5382	0.1244	-101.6
154.76	3.4301E+5	4.5495	0.1225	-102.1
154.98	3.4351E+5	4.5467	0.1209	+258.6
155.18	3.4401E+5	4.5453	0.1228	-107.2
155.38	3.4451E+5	4.5467	0.1290	-105.6
155.58	3.4501E+5	4.5396	0.1265	-100.4
155.81	3.4551E+5	4.5439	0.1253	-101.1
156.01	3.4601E+5	4.5524	0.1332	-106.1
156.21	3.4651E+5	4.5410	0.1306	-106.3
156.41	3.4701E+5	4.5396	0.1372	-106.7
156.63	3.4751E+5	4.5453	0.1323	-104.1
156.86	3.4801E+5	4.5467	0.1312	-105.5
157.06	3.4851E+5	4.5410	0.1313	-108.2
157.24	3.4901E+5	4.5425	0.1337	-105.2
157.44	3.4951E+5	4.5425	0.1317	-108.1
157.64	3.5001E+5	4.5552	0.1327	-103.4
157.84	3.5051E+5	4.5410	0.1292	-106.4
158.04	3.5101E+5	4.5410	0.1345	-111.2
158.22	3.5151E+5	4.5453	0.1380	-107.7
158.40	3.5201E+5	4.5368	0.1402	-103.4
158.60	3.5251E+5	4.5396	0.1303	-108.1
158.82	3.5301E+5	4.5439	0.1369	-103.1
159.05	3.5351E+5	4.5439	0.1419	-107.0
159.25	3.5401E+5	4.5453	0.1405	-105.2
159.45	3.5451E+5	4.5481	0.1373	-108.2
159.65	3.5501E+5	4.5439	0.1360	-107.1
159.85	3.5551E+5	4.5467	0.1490	-106.0
160.05	3.5601E+5	4.5439	0.1337	-106.8
160.25	3.5651E+5	4.5439	0.1468	-108.7
160.45	3.5701E+5	4.5410	0.1411	-103.7
160.65	3.5751E+5	4.5439	0.1459	-106.3
160.85	3.5801E+5	4.5439	0.1451	-109.5
161.03	3.5851E+5	4.5368	0.1489	-101.1
161.25	3.5901E+5	4.5439	0.1442	-105.4
161.47	3.5951E+5	4.5425	0.1536	-102.4
161.68	3.6001E+5	4.5382	0.1470	-107.0
161.91	3.6051E+5	4.5425	0.1510	-104.6
162.13	3.6101E+5	4.5425	0.1484	-104.5
162.33	3.6151E+5	4.5410	0.1558	-107.7
162.53	3.6201E+5	4.5368	0.1499	-105.2
162.75	3.6251E+5	4.5368	0.1554	-106.7
162.96	3.6301E+5	4.5297	0.1536	-108.4
163.16	3.6351E+5	4.5410	0.1446	-107.5
163.40	3.6401E+5	4.5467	0.1447	-107.8
163.58	3.6451E+5	4.5425	0.1531	-105.0
163.78	3.6501E+5	4.5425	0.1511	-105.0
163.98	3.6551E+5	4.5354	0.1553	-105.1
164.21	3.6601E+5	4.5425	0.1614	-103.0
164.43	3.6651E+5	4.5481	0.1659	-102.4
164.63	3.6701E+5	4.5354	0.1668	-109.5
164.84	3.6751E+5	4.5382	0.1594	-105.5
165.04	3.6801E+5	4.5396	0.1602	-103.1
165.22	3.6851E+5	4.5354	0.1680	-102.9
165.42	3.6901E+5	4.5368	0.1557	-102.4
165.62	3.6951E+5	4.5368	0.1534	-106.6
165.82	3.7001E+5	4.5425	0.1688	-105.9
166.04	3.7051E+5	4.5340	0.1675	-106.2
166.26	3.7101E+5	4.5311	0.1652	-105.0
166.46	3.7151E+5	4.5354	0.1515	-103.9
166.65	3.7201E+5	4.5340	0.1742	-101.5
166.85	3.7251E+5	4.5297	0.1714	-102.9
167.05	3.7301E+5	4.5382	0.1617	-105.2
167.25	3.7351E+5	4.5326	0.1719	-103.2
167.45	3.7401E+5	4.5311	0.1787	-103.6
167.65	3.7451E+5	4.5410	0.1708	-106.9
167.87	3.7501E+5	4.5326	0.1737	-103.1
168.09	3.7551E+5	4.5354	0.1747	-102.3
168.28	3.7601E+5	4.5311	0.1782	-103.2
168.48	3.7651E+5	4.5311	0.1680	-102.2
168.69	3.7701E+5	4.5283	0.1739	-103.8
168.88	3.7751E+5	4.5283	0.1749	-104.6
169.08	3.7801E+5	4.5326	0.1848	-105.1
169.28	3.7851E+5	4.5297	0.1778	-103.9
169.48	3.7901E+5	4.5326	0.1825	-103.8
169.68	3.7951E+5	4.5255	0.1831	-100.5
169.87	3.8001E+5	4.5255	0.1943	-102.7
170.08	3.8051E+5	4.5354	0.1808	-105.4
170.28	3.8101E+5	4.5297	0.1812	-100.5
170.46	3.8151E+5	4.5283	0.1833	-104.6
170.66	3.8201E+5	4.5241	0.1844	-108.7
170.85	3.8251E+5	4.5297	0.1930	-103.4
171.05	3.8301E+5	4.5212	0.1890	-102.8
171.25	3.8351E+5	4.5283	0.2015	-99.7
171.44	3.8401E+5	4.5269	0.2029	-105.0
171.65	3.8451E+5	4.5311	0.2066	-102.3
171.84	3.8501E+5	4.5326	0.1883	-101.6
172.04	3.8551E+5	4.5340	0.2020	-103.7
172.24	3.8601E+5	4.5311	0.2059	-99.0
172.44	3.8651E+5	4.5255	0.2051	-103.1
172.64	3.8701E+5	4.5241	0.2136	-102.3
172.84	3.8751E+5	4.5297	0.2089	-101.8
173.04	3.8801E+5	4.5212	0.2132	-100.4
173.24	3.8851E+5	4.5241	0.2102	-102.8
173.44	3.8901E+5	4.5283	0.2117	-101.5
173.64	3.8951E+5	4.5227	0.2178	-99.4
173.84	3.9001E+5	4.5212	0.2214	-99.1
174.04	3.9051E+5	4.5241	0.2174	-103.3
174.24	3.9101E+5	4.5212	0.2220	-103.5
174.44	3.9151E+5	4.5227	0.2272	-103.5
174.64	3.9201E+5	4.5227	0.2186	-101.7
174.84	3.9251E+5	4.5283	0.2281	-102.5
175.04	3.9301E+5	4.5212	0.2263	-99.2
175.24	3.9351E+5	4.5297	0.2271	-99.4
175.44	3.9401E+5	4.5241	0.2286	-99.2
175.64	3.9451E+5	4.5311	0.2316	-100.4
175.84	3.9501E+5	4.5283	0.2388	-101.5
176.04	3.9551E+5	4.5184	0.2264	-99.6
176.24	3.9601E+5	4.5227	0.2426	-96.3
176.43	3.9651E+5	4.5297	0.2500	-101.7
176.63	3.9701E+5	4.5241	0.2437	-99.1
176.83	3.9751E+5	4.5255	0.2278	-100.8
177.03	3.9801E+5	4.5212	0.2637	-100.7
177.23	3.9851E+5	4.5227	0.2658	-98.2
177.43	3.9901E+5	4.5241	0.2578	-98.7
177.63	3.9951E+5	4.5311	0.2654	-100.6
177.83	4.0001E+5	4.5184	0.2642	-98.5
178.03	4.0051E+5	4.5198	0.2643	-96.2
178.21	4.0101E+5	4.5184	0.2491	-96.3
178.41	4.0151E+5	4.5269	0.2800	-94.0
178.61	4.0201E+5	4.5283	0.2685	-95.4
178.81	4.0251E+5	4.5227	0.2843	-99.4
179.01	4.0301E+5	4.5297	0.2666	-99.7
179.21	4.0351E+5	4.5255	0.2820	-97.6
179.41	4.0401E+5	4.5297	0.2865	-94.8
179.61	4.0451E+5	4.5255	0.2897	-95.3
179.81	4.0501E+5	4.5255	0.2948	-96.0
180.01	4.0551E+5	4.5212	0.2890	-97.8
180.21	4.0601E+5	4.5227	0.3015	-95.4
180.41	4.0651E+5	4.5297	0.2894	-95.3
180.61	4.0701E+5	4.5297	0.2935	-92.8
180.81	4.0751E+5	4.5297	0.3113	-95.0
181.01	4.0801E+5	4.5198	0.3153	-92.0
181.21	4.0851E+5	4.5269	0.3134	-89.9
181.39	4.0901E+5	4.5227	0.3221	-90.8
181.59	4.0951E+5	4.5283	0.3141	-92.6
181.79	4.1001E+5	4.5255	0.3198	-91.8
181.99	4.1051E+5	4.5227	0.3384	-88.7
182.19	4.1101E+5	4.5326	0.3358	-88.2
182.39	4.1151E+5	4.5283	0.3327	-88.2
182.59	4.1201E+5	4.5283	0.3403	-87.5
182.79	4.1251E+5	4.5198	0.3478	-88.7
182.99	4.1301E+5	4.5255	0.3541	-86.9
183.19	4.1351E+5	4.5198	0.3521	-86.3
183.39	4.1401E+5	4.5184	0.3691	-86.2
183.59	4.1451E+5	4.5227	0.3712	-86.0
183.78	4.1501E+5	4.5227	0.3608	-85.2
183.99	4.1551E+5	4.5269	0.3629	-85.7
184.17	4.1601E+5	4.5255	0.3754	-82.2
184.37	4.1651E+5	4.5283	0.3803	-85.6
184.57	4.1701E+5	4.5269	0.3864	-82.0
184.77	4.1751E+5	4.5297	0.3913	-80.8
184.97	4.1801E+5	4.5269	0.3866	-79.1
185.16	4.1851E+5	4.5297	0.4034	-79.2
185.37	4.1901E+5	4.5241	0.3905	-78.8
185.56	4.1951E+5	4.5368	0.4098	-78.3
185.76	4.2001E+5	4.5326	0.4080	-76.0
185.96	4.2051E+5	4.5241	0.4192	-76.6
186.16	4.2101E+5	4.5255	0.4286	-76.0
186.36	4.2151E+5	4.5241	0.4268	-74.0
186.56	4.2201E+5	4.5340	0.4337	-75.1
186.76	4.2251E+5	4.5269	0.4433	-73.2
186.96	4.2301E+5	4.5311	0.4409	-74.6
187.16	4.2351E+5	4.5269	0.4467	-72.8
187.36	4.2401E+5	4.5326	0.4412	-71.9
187.56	4.2451E+5	4.5311	0.4377	-69.5
187.76	4.2501E+5	4.5283	0.4519	-69.9
187.96	4.2551E+5	4.5326	0.4605	-68.2
188.16	4.2601E+5	4.5212	0.4581	-65.2
188.36	4.2651E+5	4.5269	0.4620	-66.2
188.56	4.2701E+5	4.5255	0.4639	-61.8
188.76	4.2751E+5	4.5269	0.4773	-63.9
188.96	4.2801E+5	4.5340	0.4731	-61.3
189.16	4.2851E+5	4.5227	0.4707	-59.1
189.36	4.2901E+5	4.5283	0.4900	-59.0
189.56	4.2951E+5	4.5241	0.4801	-58.2
189.76	4.3001E+5	4.5326	0.4780	-56.9
189.96	4.3051E+5	4.5269	0.4789	-55.7
190.14	4.3101E+5	4.5269	0.4968	-53.8
190.34	4.3151E+5	4.5340	0.5015	-54.4
190.52	4.3201E+5	4.5283	0.4882	-52.0
190.70	4.3251E+5	4.5311	0.4953	-48.3
190.90	4.3301E+5	4.5297	0.4862	-50.6
191.10	4.3351E+5	4.5255	0.4886	-47.6
191.30	4.3401E+5	4.5326	0.4880	-45.1
191.49	4.3451E+5	4.5297	0.4851	-44.1
191.69	4.3501E+5	4.5269	0.4882	-43.0
191.88	4.3551E+5	4.5340	0.4977	-42.3
192.08	4.3601E+5	4.5354	0.5025	-40.4
192.28	4.3651E+5	4.5311	0.5001	-39.3
192.48	4.3701E+5	4.5283	0.4787	-38.4
192.68	4.3751E+5	4.5311	0.4699	-36.5
192.88	4.3801E+5	4.5283	0.4791	-35.3
193.08	4.3851E+5	4.5326	0.4813	-34.0
193.28	4.3901E+5	4.5326	0.4755	-32.2
193.48	4.3951E+5	4.5326	0.4762	-29.5
193.66	4.4001E+5	4.5354	0.4735	-33.6
193.86	4.4051E+5	4.5269	0.4624	-28.9
194.06	4.4101E+5	4.5340	0.4547	-26.9
194.26	4.4151E+5	4.5311	0.4606	-27.5
194.46	4.4201E+5	4.5326	0.4514	-25.3
194.66	4.4251E+5	4.5326	0.4575	-26.7
194.86	4.4301E+5	4.5297	0.4410	-23.4
195.06	4.4351E+5	4.5311	0.4434	-24.5
195.26	4.4401E+5	4.5297	0.4304	-21.4
195.46	4.4451E+5	4.5354	0.4338	-19.6
195.66	4.4501E+5	4.5368	0.4239	-20.5
195.86	4.4551E+5	4.5368	0.4227	-19.9
196.06	4.4601E+5	4.5311	0.4249	-17.0
196.26	4.4651E+5	4.5255	0.4222	-16.4
196.46	4.4701E+5	4.5269	0.4114	-16.8
196.66	4.4751E+5	4.5269	0.4039	-16.9
196.86	4.4801E+5	4.5354	0.4035	-14.6
197.04	4.4851E+5	4.5368	0.3934	-8.7
197.24	4.4901E+5	4.5311	0.3810	-12.4
197.44	4.4951E+5	4.5340	0.3814	-11.0
197.62	4.5001E+5	4.5326	0.3885	-12.5
197.82	4.5051E+5	4.5368	0.3723	-8.7
198.02	4.5101E+5	4.5326	0.3863	-7.2
198.22	4.5151E+5	4.5326	0.3717	-10.0
198.42	4.5201E+5	4.5311	0.3679	-7.2
198.62	4.5251E+5	4.5354	0.3733	-5.3
198.82	4.5301E+5	4.5311	0.3509	-6.5
199.02	4.5351E+5	4.5382	0.3517	-6.3
199.20	4.5401E+5	4.5311	0.3556	-5.8
199.40	4.5451E+5	4.5297	0.3407	-7.6
199.60	4.5501E+5	4.5340	0.3429	-2.2
199.80	4.5551E+5	4.5354	0.3399	-1.1
200.02	4.5601E+5	4.5269	0.3365	-5.1
200.22	4.5651E+5	4.5354	0.3220	-1.4
200.42	4.5701E+5	4.5326	0.3178	-1.3
200.62	4.5751E+5	4.5396	0.3185	-1.3
200.81	4.5801E+5	4.5425	0.3160	-4.9
201.03	4.5851E+5	4.5297	0.3095	-0.8
201.25	4.5901E+5	4.5311	0.3038	-2.3
201.45	4.5951E+5	4.5354	0.3094	+0.1
201.65	4.6001E+5	4.5382	0.3142	-1.0
201.85	4.6051E+5	4.5340	0.3011	+0.6
202.05	4.6101E+5	4.5326	0.3016	+0.3
202.25	4.6151E+5	4.5340	0.2897	+1.5
202.45	4.6201E+5	4.5340	0.2770	+2.0
202.65	4.6251E+5	4.5311	0.2928	+1.1
202.84	4.6301E+5	4.5410	0.2787	+1.8
203.06	4.6351E+5	4.5382	0.2822	+1.4
203.28	4.6401E+5	4.5382	0.2840	-1.8
203.46	4.6451E+5	4.5311	0.2757	-0.6
203.66	4.6501E+5	4.5311	0.2741	+0.7
203.86	4.6551E+5	4.5255	0.2722	+3.9
204.06	4.6601E+5	4.5326	0.2742	+3.7
204.26	4.6651E+5	4.5354	0.2662	+5.8
204.46	4.6701E+5	4.5354	0.2674	+2.5
204.66	4.6751E+5	4.5368	0.2554	+3.2
204.86	4.6801E+5	4.5283	0.2609	+5.3
205.06	4.6851E+5	4.5340	0.2444	+8.4
205.26	4.6901E+5	4.5326	0.2594	+5.9
205.46	4.6951E+5	4.5382	0.2538	+7.5
205.66	4.7001E+5	4.5340	0.2372	+4.9
205.85	4.7051E+5	4.5410	0.2436	+8.6
206.07	4.7101E+5	4.5354	0.2449	+4.5
206.30	4.7151E+5	4.5410	0.2381	+7.3
206.54	4.7201E+5	4.5326	0.2381	+7.2
206.74	4.7251E+5	4.5354	0.2263	+8.6
206.94	4.7301E+5	4.5410	0.2178	+6.6
207.15	4.7351E+5	4.5326	0.2284	+5.9
207.37	4.7401E+5	4.5453	0.2278	+9.0
207.57	4.7451E+5	4.5382	0.2155	+10.8
207.78	4.7501E+5	4.5326	0.2115	+8.7
207.98	4.7551E+5	4.5368	0.2159	+10.7
208.18	4.7601E+5	4.5396	0.2146	+12.1
208.38	4.7651E+5	4.5311	0.2275	+6.5
208.58	4.7701E+5	4.5340	0.2083	+11.6
208.78	4.7751E+5	4.5368	0.2070	+9.6
208.98	4.7801E+5	4.5396	0.2011	+8.0
209.18	4.7851E+5	4.5340	0.2121	+8.7
209.38	4.7901E+5	4.5354	0.1999	+5.1
209.58	4.7951E+5	4.5340	0.1974	+8.2
209.78	4.8001E+5	4.5425	0.2096	+12.9
210.00	4.8051E+5	4.5396	0.2003	+9.4
210.23	4.8101E+5	4.5340	0.1976	+10.7
210.43	4.8151E+5	4.5396	0.1959	+9.7
210.63	4.8201E+5	4.5354	0.2073	+11.4
210.83	4.8251E+5	4.5326	0.1935	+9.3
211.03	4.8301E+5	4.5368	0.1959	+7.3
211.23	4.8351E+5	4.5340	0.2031	+11.0
211.43	4.8401E+5	4.5340	0.1749	+9.6
211.63	4.8451E+5	4.5396	0.1918	+11.9
211.82	4.8501E+5	4.5354	0.1869	+12.8
212.03	4.8551E+5	4.5340	0.1971	+7.5
212.22	4.8601E+5	4.5425	0.1886	+9.8
212.44	4.8651E+5	4.5311	0.1794	+8.9
212.67	4.8701E+5	4.5382	0.1904	+15.2
212.87	4.8751E+5	4.5354	0.1839	+12.2
213.07	4.8801E+5	4.5396	0.1853	+14.6
213.27	4.8851E+5	4.5453	0.1771	+12.7
213.49	4.8901E+5	4.5382	0.1770	+13.2
213.69	4.8951E+5	4.5354	0.1684	+10.6
213.90	4.9001E+5	4.5368	0.1743	+13.1
214.10	4.9051E+5	4.5396	0.1696	+13.8
214.30	4.9101E+5	4.5368	0.1615	+11.1
214.50	4.9151E+5	4.5368	0.1695	+13.2
214.70	4.9201E+5	4.5340	0.1720	+10.7
214.90	4.9251E+5	4.5340	0.1733	+10.8
215.10	4.9301E+5	4.5396	0.1642	+14.9
215.30	4.9351E+5	4.5382	0.1678	+14.2
215.50	4.9401E+5	4.5354	0.1542	+15.2
215.70	4.9451E+5	4.5410	0.1539	+13.4
215.90	4.9501E+5	4.5354	0.1534	+7.3
216.12	4.9551E+5	4.5326	0.1575	+13.8
216.32	4.9601E+5	4.5382	0.1568	+6.5
216.50	4.9651E+5	4.5354	0.1561	+13.2
216.70	4.9701E+5	4.5382	0.1680	+10.8
216.90	4.9751E+5	4.5396	0.1578	+14.9
217.10	4.9801E+5	4.5410	0.1512	+12.4
217.31	4.9851E+5	4.5340	0.1424	+8.9
217.53	4.9901E+5	4.5354	0.1479	+13.5
217.73	4.9951E+5	4.5410	0.1462	+10.5
217.95	5.0001E+5	4.5297	0.1498	+9.3
218.16	5.0051E+5	4.5410	0.1509	+15.2
218.38	5.0101E+5	4.5340	0.1494	+14.1
218.59	5.0151E+5	4.5340	0.1519	+10.3
218.79	5.0201E+5	4.5382	0.1511	+11.1
218.98	5.0251E+5	4.5382	0.1380	+16.2
219.18	5.0301E+5	4.5396	0.1398	+12.8
219.38	5.0351E+5	4.5425	0.1459	+10.3
219.61	5.0401E+5	4.5410	0.1432	+15.9
219.81	5.0451E+5	4.5382	0.1428	+12.9
220.01	5.0501E+5	4.5340	0.1358	+13.3
220.21	5.0551E+5	4.5311	0.1421	+11.2
220.41	5.0601E+5	4.5425	0.1452	+11.3
220.62	5.0651E+5	4.5425	0.1326	+10.0
220.82	5.0701E+5	4.5396	0.1355	+3.9
221.04	5.0751E+5	4.5396	0.1413	+17.0
221.24	5.0801E+5	4.5326	0.1422	+17.4
221.44	5.0851E+5	4.5368	0.1365	+13.9
221.64	5.0901E+5	4.5297	0.1356	+16.2
221.82	5.0951E+5	4.5410	0.1338	+13.5
222.04	5.1001E+5	4.5283	0.1352	+11.3
222.25	5.1051E+5	4.5410	0.1390	+12.2
222.47	5.1101E+5	4.5396	0.1346	+13.3
222.70	5.1151E+5	4.5396	0.1250	+12.6
222.90	5.1201E+5	4.5382	0.1316	+11.1
223.10	5.1251E+5	4.5326	0.1332	+10.9
223.30	5.1301E+5	4.5453	0.1254	+14.5
223.52	5.1351E+5	4.5396	0.1286	+10.9
223.73	5.1401E+5	4.5368	0.1354	+10.3
223.93	5.1451E+5	4.5368	0.1204	+12.7
224.13	5.1501E+5	4.5425	0.1177	+12.1
224.35	5.1551E+5	4.5311	0.1282	+16.1
224.58	5.1601E+5	4.5354	0.1261	+15.8
224.78	5.1651E+5	4.5368	0.1278	+16.0
224.98	5.1701E+5	4.5354	0.1250	+13.6
225.18	5.1751E+5	4.5354	0.1211	+11.4
225.38	5.1801E+5	4.5439	0.1260	+14.4
225.60	5.1851E+5	4.5382	0.1166	+11.5
225.83	5.1901E+5	4.5326	0.1241	+7.9
226.03	5.1951E+5	4.5410	0.1145	+14.5
226.26	5.2001E+5	4.5340	0.1201	+10.1
226.49	5.2051E+5	4.5410	0.1189	+11.3
226.73	5.2101E+5	4.5410	0.1158	+11.5
226.93	5.2151E+5	4.5326	0.1168	+11.4
227.14	5.2201E+5	4.5368	0.1163	+17.7
227.34	5.2251E+5	4.5410	0.1177	+14.5
227.56	5.2301E+5	4.5368	0.1246	+10.4
227.78	5.2351E+5	4.5340	0.1194	+13.7
227.97	5.2401E+5	4.5382	0.1148	+15.0
228.17	5.2451E+5	4.5354	0.1196	+12.8
228.37	5.2501E+5	4.5368	0.1144	+14.7
228.57	5.2551E+5	4.5326	0.1172	+14.9
228.77	5.2601E+5	4.5396	0.1174	+11.1
228.96	5.2651E+5	4.5326	0.1186	+11.8
229.16	5.2701E+5	4.5354	0.1164	+14.7
229.35	5.2751E+5	4.5326	0.1054	+11.4
229.56	5.2801E+5	4.5396	0.1207	+15.6
229.75	5.2851E+5	4.5410	0.1083	+12.7
229.97	5.2901E+5	4.5326	0.1102	+12.8
230.20	5.2951E+5	4.5382	0.1109	+14.2
230.39	5.3001E+5	4.5354	0.1084	+12.4
230.59	5.3051E+5	4.5354	0.1090	+12.4
230.77	5.3101E+5	4.5311	0.1098	+10.1
230.97	5.3151E+5	4.5410	0.1046	+13.1
231.18	5.3201E+5	4.5368	0.1140	+8.9
231.40	5.3251E+5	4.5326	0.1109	+9.4
231.60	5.3301E+5	4.5354	0.1082	+16.4
231.80	5.3351E+5	4.5382	0.1031	+12.6
232.00	5.3401E+5	4.5425	0.1119	+4.5
232.22	5.3451E+5	4.5368	0.1072	+13.2
232.45	5.3501E+5	4.5340	0.1039	+9.4
232.65	5.3551E+5	4.5396	0.1028	+18.4
232.83	5.3601E+5	4.5354	0.1156	+15.5
233.03	5.3651E+5	4.5340	0.1033	+16.2
233.23	5.3701E+5	4.5410	0.0967	+8.2
233.45	5.3751E+5	4.5368	0.1037	+12.8
233.66	5.3801E+5	4.5382	0.0955	+8.7
233.86	5.3851E+5	4.5382	0.1046	+17.6
234.06	5.3901E+5	4.5368	0.1011	+13.9
234.26	5.3951E+5	4.5410	0.1143	+19.4
234.48	5.4001E+5	4.5425	0.1063	+11.5
234.68	5.4051E+5	4.5382	0.0996	+17.2
234.89	5.4101E+5	4.5396	0.0994	+8.7
235.08	5.4151E+5	4.5354	0.1085	+7.6
235.29	5.4201E+5	4.5382	0.1054	+19.5
235.49	5.4251E+5	4.5368	0.0952	+14.4
235.69	5.4301E+5	4.5382	0.0965	+10.0
235.89	5.4351E+5	4.5382	0.0959	+18.8
236.07	5.4401E+5	4.5340	0.0984	+13.9
236.27	5.4451E+5	4.5382	0.1067	+8.0
236.47	5.4501E+5	4.5410	0.1011	+11.4
236.69	5.4551E+5	4.5326	0.0937	+10.4
236.91	5.4601E+5	4.5382	0.0999	+10.3
237.11	5.4651E+5	4.5382	0.0953	+16.6
237.30	5.4701E+5	4.5368	0.1175	+20.8
237.50	5.4751E+5	4.5382	0.0981	+13.1
237.70	5.4801E+5	4.5354	0.0843	+11.2
237.90	5.4851E+5	4.5382	0.0940	+14.4
238.10	5.4901E+5	4.5410	0.0939	+11.9
238.30	5.4951E+5	4.5368	0.1029	+11.8
238.52	5.5001E+5	4.5382	0.0930	+7.2
238.72	5.5051E+5	4.5396	0.0864	+11.7
238.92	5.5101E+5	4.5297	0.0974	+7.7
239.12	5.5151E+5	4.5340	0.0972	+14.5
239.32	5.5201E+5	4.5382	0.0935	+10.8
239.52	5.5251E+5	4.5340	0.0870	+10.3
239.73	5.5301E+5	4.5326	0.0947	+16.0
239.93	5.5351E+5	4.5453	0.0931	+9.1
240.15	5.5401E+5	4.5326	0.0930	+16.4
240.35	5.5451E+5	4.5425	0.0906	+11.8
240.56	5.5501E+5	4.5410	0.0975	+5.2
240.76	5.5551E+5	4.5410	0.1101	+26.3
240.96	5.5601E+5	4.5410	0.0915	+11.5
241.16	5.5651E+5	4.5354	0.0942	+8.6
241.38	5.5701E+5	4.5439	0.0854	+11.3
241.60	5.5751E+5	4.5354	0.0944	+21.4
241.81	5.5801E+5	4.5396	0.0866	+10.7
242.01	5.5851E+5	4.5297	0.0802	+8.1
242.21	5.5901E+5	4.5354	0.0992	+16.9
242.41	5.5951E+5	4.5368	0.0894	+14.8
242.61	5.6001E+5	4.5425	0.0953	+9.1
242.83	5.6051E+5	4.5439	0.0967	+16.1
243.03	5.6101E+5	4.5326	0.0946	+8.8
243.23	5.6151E+5	4.5382	0.0837	+10.9
243.42	5.6201E+5	4.5340	0.0896	+15.0
243.63	5.6251E+5	4.5382	0.0874	+13.8
243.82	5.6301E+5	4.5368	0.0883	+14.3
244.01	5.6351E+5	4.5354	0.0841	+10.0
244.21	5.6401E+5	4.5354	0.0922	+17.1
244.41	5.6451E+5	4.5311	0.0890	+17.9
244.61	5.6501E+5	4.5340	0.0958	+11.9
244.81	5.6551E+5	4.5410	0.0894	+9.6
245.02	5.6601E+5	4.5396	0.0883	+9.3
245.24	5.6651E+5	4.5354	Inf	-344.3
245.42	5.6701E+5	4.5382	0.0954	+20.2
245.62	5.6751E+5	4.5368	0.0881	+11.2
245.82	5.6801E+5	4.5368	0.0855	+12.6
246.02	5.6851E+5	4.5396	0.0939	+21.3
246.22	5.6901E+5	4.5382	0.0846	+14.2
246.40	5.6951E+5	4.5340	0.0814	+5.6
246.60	5.7001E+5	4.5368	0.0861	+14.6
246.80	5.7051E+5	4.5396	0.0945	-0.4
247.00	5.7101E+5	4.5326	0.0880	+8.9
247.20	5.7151E+5	4.5410	0.0830	+10.0
247.42	5.7201E+5	4.5340	0.0824	+11.8
247.63	5.7251E+5	4.5382	0.0776	+13.5
247.83	5.7301E+5	4.5453	0.0756	+9.8
248.05	5.7351E+5	4.5382	0.0915	+19.8
248.26	5.7401E+5	4.5354	0.0795	+10.7
248.47	5.7451E+5	4.5311	0.0741	+15.2
248.66	5.7501E+5	4.5340	0.0833	+14.7
248.85	5.7551E+5	4.5311	0.0800	+8.0
249.05	5.7601E+5	4.5368	0.0988	+27.8
249.25	5.7651E+5	4.5340	0.0813	+9.7
249.44	5.7701E+5	4.5311	0.0842	+11.4
249.65	5.7751E+5	4.5396	0.0866	+5.7
249.84	5.7801E+5	4.5297	0.0828	+15.3
250.04	5.7851E+5	4.5382	0.0857	+11.1
250.24	5.7901E+5	4.5368	Inf	+366.9
250.43	5.7951E+5	4.5311	0.0750	+10.7
250.63	5.8001E+5	4.5311	0.0778	+9.1
250.81	5.8051E+5	4.5297	0.0795	+6.6
251.01	5.8101E+5	4.5326	0.0791	+11.3
251.19	5.8151E+5	4.5340	0.0833	+8.2
251.39	5.8201E+5	4.5368	0.0704	+11.8
251.59	5.8251E+5	4.5425	0.0740	+10.8
251.81	5.8301E+5	4.5396	0.0766	+10.7
252.02	5.8351E+5	4.5368	0.0803	+8.3
252.22	5.8401E+5	4.5368	0.0767	+7.9
252.41	5.8451E+5	4.5311	0.0835	+9.7
252.60	5.8501E+5	4.5439	0.0803	+11.7
252.82	5.8551E+5	4.5382	0.0752	+13.5
253.04	5.8601E+5	4.5311	0.0732	+12.8
253.24	5.8651E+5	4.5326	0.0811	+11.8
253.44	5.8701E+5	4.5425	0.0787	+19.3
253.65	5.8751E+5	4.5354	0.0712	+11.2
253.87	5.8801E+5	4.5326	0.0778	+9.0
254.05	5.8851E+5	4.5311	0.0675	-347.6
254.24	5.8901E+5	4.5354	0.0743	+3.4
254.42	5.8951E+5	4.5340	0.0802	+3.9
254.60	5.9001E+5	4.5368	0.0772	+4.8
254.78	5.9051E+5	4.5311	0.0777	+5.6
254.95	5.9101E+5	4.5326	0.0758	+13.2
255.13	5.9151E+5	4.5425	0.0748	+15.9
255.35	5.9201E+5	4.5354	0.0740	+4.9
255.53	5.9251E+5	4.5326	0.0743	+16.6
255.72	5.9301E+5	4.5255	0.0791	+12.9
255.90	5.9351E+5	4.5297	0.0727	+11.9
256.08	5.9401E+5	4.5311	0.0746	-351.1
256.26	5.9451E+5	4.5354	0.0712	+4.9
256.44	5.9501E+5	4.5396	Inf	-340.5
256.60	5.9551E+5	4.5382	0.0674	-342.3
256.78	5.9601E+5	4.5340	0.0831	+18.0
256.96	5.9651E+5	4.5340	0.0735	+10.7
257.15	5.9701E+5	4.5326	0.0701	+4.9
257.35	5.9751E+5	4.5326	0.0737	+11.4
257.55	5.9801E+5	4.5297	0.0735	+14.0
257.73	5.9851E+5	4.5326	Inf	+366.2
257.89	5.9901E+5	4.5326	0.0776	+7.2
258.09	5.9951E+5	4.5382	0.0670	+11.2
258.29	6.0001E+5	4.5382	0.0775	+1.3
258.49	6.0051E+5	4.5354	0.0720	+8.0
258.69	6.0101E+5	4.5382	0.0844	+0.3
258.89	6.0151E+5	4.5396	0.0681	+6.9
259.07	6.0201E+5	4.5326	0.0790	+9.6
259.27	6.0251E+5	4.5354	0.0709	+13.9
259.47	6.0301E+5	4.5326	0.0805	-1.8
259.67	6.0351E+5	4.5410	0.0700	+5.6
259.91	6.0401E+5	4.5340	0.0727	+11.7
260.11	6.0451E+5	4.5354	0.0703	+6.3
260.31	6.0501E+5	4.5368	0.0686	+7.9
260.50	6.0551E+5	4.5297	0.0693	+9.4
260.71	6.0601E+5	4.5326	0.0748	+4.5
260.90	6.0651E+5	4.5255	0.0681	+9.5
261.10	6.0701E+5	4.5311	0.0735	+12.4
261.29	6.0751E+5	4.5326	0.0700	+9.0
261.49	6.0801E+5	4.5326	0.0715	+9.4
261.69	6.0851E+5	4.5368	0.0744	+2.9
261.88	6.0901E+5	4.5297	0.0731	+12.1
262.08	6.0951E+5	4.5354	0.0638	+11.5
262.27	6.1001E+5	4.5326	0.0772	+7.9
262.47	6.1051E+5	4.5269	Inf	-349.3
262.65	6.1101E+5	4.5368	0.0834	+6.6
262.85	6.1151E+5	4.5354	0.0705	+10.4
263.05	6.1201E+5	4.5283	0.0715	+8.6
263.23	6.1251E+5	4.5396	0.0711	+11.1
263.43	6.1301E+5	4.5354	0.0742	+0.3
263.63	6.1351E+5	4.5340	0.0716	+9.8
263.83	6.1401E+5	4.5354	0.0661	+5.3
264.03	6.1451E+5	4.5382	0.0757	-2.7
264.21	6.1501E+5	4.5326	0.0772	-0.1
264.41	6.1551E+5	4.5311	0.0674	+10.7
264.61	6.1601E+5	4.5368	0.0675	+10.0
264.80	6.1651E+5	4.5311	0.0696	+9.6
265.00	6.1701E+5	4.5354	0.0733	+8.9
265.18	6.1751E+5	4.5354	Inf	-351.0
265.36	6.1801E+5	4.5368	0.0713	+0.3
265.56	6.1851E+5	4.5255	0.0732	-1.7
265.76	6.1901E+5	4.5354	0.0765	+9.1
265.94	6.1951E+5	4.5241	0.0679	+3.1
266.14	6.2001E+5	4.5283	0.0686	+3.4
266.33	6.2051E+5	4.5283	0.0694	+13.2
266.53	6.2101E+5	4.5255	0.0687	+5.7
266.71	6.2151E+5	4.5326	0.0679	+12.9
266.89	6.2201E+5	4.5340	0.0670	+15.8
267.09	6.2251E+5	4.5326	0.0639	-349.1
267.29	6.2301E+5	4.5354	0.0593	-337.0
267.49	6.2351E+5	4.5283	0.0617	-341.3
267.66	6.2401E+5	4.5340	0.0654	+3.1
267.86	6.2451E+5	4.5354	0.0684	+8.6
268.06	6.2501E+5	4.5311	0.0681	+5.5
268.24	6.2551E+5	4.5297	0.0631	+9.1
268.44	6.2601E+5	4.5354	0.0661	+8.9
268.60	6.2651E+5	4.5241	Inf	+13.1
268.79	6.2701E+5	4.5311	0.0663	+2.7
268.97	6.2751E+5	4.5354	Inf	-359.4
269.15	6.2801E+5	4.5340	0.0645	+3.1
269.34	6.2851E+5	4.5269	Inf	+9.7
269.52	6.2901E+5	4.5241	0.0677	+5.1
269.70	6.2951E+5	4.5326	0.0674	+7.6
269.89	6.3001E+5	4.5354	0.0634	-351.1
270.07	6.3051E+5	4.5269	Inf	+368.6
270.25	6.3101E+5	4.5311	0.0628	+7.2
270.45	6.3151E+5	4.5283	0.0646	+8.2
270.65	6.3201E+5	4.5340	0.0640	-344.2
270.83	6.3251E+5	4.5269	0.0717	+6.9
271.03	6.3301E+5	4.5255	0.0655	+9.3
271.23	6.3351E+5	4.5326	0.0631	+7.3
271.43	6.3401E+5	4.5269	Inf	+369.6
271.60	6.3451E+5	4.5354	0.0630	+10.3
271.78	6.3501E+5	4.5269	Inf	+363.8
271.96	6.3551E+5	4.5340	0.0682	+5.1
272.16	6.3601E+5	4.5269	0.0624	+7.5
272.35	6.3651E+5	4.5283	0.0664	+14.9
272.55	6.3701E+5	4.5354	0.0619	+6.8
272.75	6.3751E+5	4.5311	Inf	-352.8
272.93	6.3801E+5	4.5283	Inf	-347.2
273.10	6.3851E+5	4.5241	0.0612	+8.0
273.30	6.3901E+5	4.5326	0.0670	+12.5
273.49	6.3951E+5	4.5283	0.0614	+7.0
273.69	6.4001E+5	4.5283	0.0718	+19.1
273.88	6.4051E+5	4.5269	0.0611	+14.3
274.08	6.4101E+5	4.5227	0.0668	+12.5
274.28	6.4151E+5	4.5297	0.0641	+6.6
274.46	6.4201E+5	4.5297	0.0640	+5.5
274.64	6.4251E+5	4.5283	0.0756	+8.3
274.84	6.4301E+5	4.5269	0.0619	+2.5
275.04	6.4351E+5	4.5212	0.0606	+7.3
275.22	6.4401E+5	4.5241	0.0638	+12.2
275.42	6.4451E+5	4.5269	0.0622	+13.0
275.62	6.4501E+5	4.5311	0.0629	+7.5
275.81	6.4551E+5	4.5255	0.0624	+2.2
275.97	6.4601E+5	4.5241	0.0625	+5.9
276.15	6.4651E+5	4.5311	Inf	+373.4
276.34	6.4701E+5	4.5255	0.0732	+17.5
276.52	6.4751E+5	4.5241	0.0701	+14.9
276.72	6.4801E+5	4.5241	Inf	-348.0
276.90	6.4851E+5	4.5311	Inf	-356.8
277.09	6.4901E+5	4.5326	0.0628	+9.3
277.27	6.4951E+5	4.5283	0.0637	+1.3
277.47	6.5001E+5	4.5283	0.0618	+9.9
277.67	6.5051E+5	4.5283	0.0635	+8.2
277.85	6.5101E+5	4.5283	0.0658	+6.6
278.05	6.5151E+5	4.5212	0.0639	+0.0
278.25	6.5201E+5	4.5311	Inf	-357.7
278.42	6.5251E+5	4.5311	0.0593	-342.7
278.62	6.5301E+5	4.5241	0.0673	+10.3
278.82	6.5351E+5	4.5255	0.0615	+7.9
279.02	6.5401E+5	4.5326	0.0700	+5.1
279.20	6.5451E+5	4.5354	0.0578	-340.9
279.40	6.5501E+5	4.5241	0.0718	+6.9
279.60	6.5551E+5	4.5227	0.0616	+4.6
279.78	6.5601E+5	4.5198	0.0614	+5.9
279.96	6.5651E+5	4.5311	0.0670	-3.6
280.15	6.5701E+5	4.5255	Inf	+367.4
280.31	6.5751E+5	4.5269	0.0613	+12.5
280.51	6.5801E+5	4.5269	Inf	+15.3
280.70	6.5851E+5	4.5241	0.0598	-350.1
280.89	6.5901E+5	4.5311	0.0685	+14.5
281.08	6.5951E+5	4.5227	0.0597	+5.8
281.28	6.6001E+5	4.5255	Inf	-3.5
281.46	6.6051E+5	4.5255	0.0575	-347.1
281.64	6.6101E+5	4.5269	0.0588	+9.6
281.84	6.6151E+5	4.5212	0.0560	-348.5
282.04	6.6201E+5	4.5269	0.0608	+7.0
282.23	6.6251E+5	4.5198	Inf	+380.0
282.41	6.6301E+5	4.5227	0.0644	+0.3
282.61	6.6351E+5	4.5297	0.0612	-0.7
282.79	6.6401E+5	4.5241	0.0595	+9.0
282.99	6.6451E+5	4.5184	0.0594	+2.2
283.17	6.6501E+5	4.5269	0.0675	-0.4
283.36	6.6551E+5	4.5283	0.0596	+12.0
283.56	6.6601E+5	4.5241	Inf	+5.3
283.74	6.6651E+5	4.5198	0.0594	+4.9
283.91	6.6701E+5	4.5198	0.0587	+1.5
284.09	6.6751E+5	4.5297	0.0615	+13.6
284.29	6.6801E+5	4.5269	0.0628	-1.0
284.45	6.6851E+5	4.5283	0.0598	-4.1
284.65	6.6901E+5	4.5269	0.0571	+6.2
284.85	6.6951E+5	4.5156	Inf	-356.5
285.02	6.7001E+5	4.5311	0.0540	-347.2
285.22	6.7051E+5	4.5269	0.0571	+8.0
285.42	6.7101E+5	4.5227	Inf	+10.0
285.58	6.7151E+5	4.5227	0.0577	+6.5
285.79	6.7201E+5	4.5255	0.0589	+7.7
285.99	6.7251E+5	4.5269	0.0563	+5.1
286.17	6.7301E+5	4.5227	0.0551	+5.6
286.37	6.7351E+5	4.5212	0.0574	+2.5
286.57	6.7401E+5	4.5255	0.0549	+351.2
286.75	6.7451E+5	4.5269	0.0586	+3.1
286.95	6.7501E+5	4.5212	0.0561	+2.0
287.15	6.7551E+5	4.5227	0.0577	-354.8
287.33	6.7601E+5	4.5269	0.0565	+15.0
287.53	6.7651E+5	4.5227	Inf	-354.2
287.71	6.7701E+5	4.5255	0.0532	-347.9
287.90	6.7751E+5	4.5241	0.0563	-351.8
288.10	6.7801E+5	4.5297	0.0659	+11.6
288.30	6.7851E+5	4.5212	0.0625	-1.0
288.48	6.7901E+5	4.5227	0.0590	+7.3
288.68	6.7951E+5	4.5340	0.0550	+2.8
288.88	6.8001E+5	4.5241	0.0585	+6.6
289.06	6.8051E+5	4.5241	Inf	+363.5
289.24	6.8101E+5	4.5311	0.0558	-346.8
289.44	6.8151E+5	4.5255	0.0630	-8.4
289.63	6.8201E+5	4.5311	0.0573	+10.4
289.83	6.8251E+5	4.5227	Inf	+5.2
290.01	6.8301E+5	4.5212	0.0553	+2.5
290.19	6.8351E+5	4.5269	0.0545	-344.0
290.37	6.8401E+5	4.5283	Inf	-4.2
290.54	6.8451E+5	4.5212	0.0639	-2.4
290.74	6.8501E+5	4.5255	0.0559	+5.5
290.94	6.8551E+5	4.5340	0.0642	+6.6
291.12	6.8601E+5	4.5283	0.0575	+7.6
291.32	6.8651E+5	4.5241	0.0584	+9.8
291.51	6.8701E+5	4.5269	0.0566	+8.7
291.69	6.8751E+5	4.5241	0.0547	-349.3
291.89	6.8801E+5	4.5241	0.0561	-2.8
292.09	6.8851E+5	4.5255	0.0552	+5.5
292.27	6.8901E+5	4.5241	0.0575	+2.2
292.47	6.8951E+5	4.5198	Inf	-362.8
292.64	6.9001E+5	4.5269	0.0552	+0.0
292.84	6.9051E+5	4.5241	0.0546	+356.6
293.02	6.9101E+5	4.5269	Inf	+362.0
293.19	6.9151E+5	4.5283	Inf	-352.1
293.37	6.9201E+5	4.5241	0.0621	+6.2
293.57	6.9251E+5	4.5269	0.0569	+5.1
293.75	6.9301E+5	4.5269	0.0566	+6.5
293.93	6.9351E+5	4.5227	Inf	-2.4
294.10	6.9401E+5	4.5198	0.0547	+4.1
294.30	6.9451E+5	4.5198	0.0533	-355.9
294.50	6.9501E+5	4.5241	0.0557	+3.0
294.68	6.9551E+5	4.5311	0.0537	-354.7
294.88	6.9601E+5	4.5227	0.0626	-10.0
295.08	6.9651E+5	4.5311	Inf	+367.0
295.25	6.9701E+5	4.5269	0.0558	+13.6
295.45	6.9751E+5	4.5269	0.0565	+2.0
295.63	6.9801E+5	4.5297	Inf	+9.2
295.81	6.9851E+5	4.5269	0.0538	+2.3
296.01	6.9901E+5	4.5283	0.0526	-341.8
296.20	6.9951E+5	4.5227	0.0566	+12.2
296.40	7.0001E+5	4.5198	0.0555	+352.1
296.58	7.0051E+5	4.5297	0.0556	+9.0
296.75	7.0101E+5	4.5184	0.0526	-351.0
296.94	7.0151E+5	4.5198	0.0534	-353.8
297.13	7.0201E+5	4.5241	0.0532	+5.1
297.31	7.0251E+5	4.5255	0.0569	+1.3
297.51	7.0301E+5	4.5283	0.0534	+6.2
297.69	7.0351E+5	4.5227	0.0555	-351.7
297.89	7.0401E+5	4.5198	Inf	+Inf
298.06	7.0451E+5	4.5227	0.0556	+0.6
298.24	7.0501E+5	4.5326	0.0579	+0.7
298.44	7.0551E+5	4.5212	0.0641	-17.2
298.62	7.0601E+5	4.5227	0.0538	+5.8
298.82	7.0651E+5	4.5241	Inf	-4.1
298.99	7.0701E+5	4.5198	0.0537	+9.1
299.17	7.0751E+5	4.5241	0.0622	+4.2
299.37	7.0801E+5	4.5241	Inf	-357.8
299.54	7.0851E+5	4.5227	0.0551	-351.1
299.74	7.0901E+5	4.5269	0.0539	+2.1
299.92	7.0951E+5	4.5283	0.0565	+4.2
300.12	7.1001E+5	4.5198	0.0558	+12.8
300.32	7.1051E+5	4.5255	0.0541	+3.9
300.50	7.1101E+5	4.5198	0.0535	+4.1
300.69	7.1151E+5	4.5241	Inf	-0.6
300.85	7.1201E+5	4.5198	0.0524	-354.4
301.05	7.1251E+5	4.5241	Inf	-344.0
301.22	7.1301E+5	4.5212	Inf	+377.6
301.40	7.1351E+5	4.5283	Inf	+3.2
301.58	7.1401E+5	4.5283	0.0594	+1.5
301.77	7.1451E+5	4.5269	0.0517	-344.5
301.97	7.1501E+5	4.5283	0.0534	+3.9
302.15	7.1551E+5	4.5241	0.0540	+359.4
302.33	7.1601E+5	4.5198	0.0547	+4.2
302.53	7.1651E+5	4.5311	0.0556	+5.2
302.70	7.1701E+5	4.5269	Inf	+2.2
302.88	7.1751E+5	4.5283	Inf	-3.7
303.05	7.1801E+5	4.5227	0.0529	+4.4
303.25	7.1851E+5	4.5227	0.0553	+6.0
303.45	7.1901E+5	4.5227	0.0569	-10.4
303.63	7.1951E+5	4.5269	0.0520	-349.0
303.83	7.2001E+5	4.5184	0.0545	-348.7
304.01	7.2051E+5	4.5311	0.0538	+7.7
304.21	7.2101E+5	4.5198	Inf	+3.0
304.38	7.2151E+5	4.5170	0.0527	+355.4
304.58	7.2201E+5	4.5212	0.0537	+5.5
304.78	7.2251E+5	4.5283	0.0514	-343.2
304.96	7.2301E+5	4.5283	0.0530	+11.2
305.16	7.2351E+5	4.5269	0.0604	-8.5
305.34	7.2401E+5	4.5170	0.0547	+4.8
305.54	7.2451E+5	4.5184	0.0535	+5.8
305.73	7.2501E+5	4.5255	0.0539	+357.5
305.91	7.2551E+5	4.5255	Inf	-355.4
306.09	7.2601E+5	4.5255	Inf	+5.1
306.26	7.2651E+5	4.5241	Inf	-359.2
306.44	7.2701E+5	4.5255	0.0532	+2.4
306.61	7.2751E+5	4.5241	Inf	+5.5
306.79	7.2801E+5	4.5255	0.0584	+2.2
306.97	7.2851E+5	4.5269	0.0539	+2.5
307.17	7.2901E+5	4.5227	0.0589	-8.6
307.37	7.2951E+5	4.5255	0.0521	+3.1
307.56	7.3001E+5	4.5269	0.0531	+6.2
307.75	7.3051E+5	4.5212	Inf	-1.0
307.92	7.3101E+5	4.5241	0.0525	+4.4
308.12	7.3151E+5	4.5269	0.0531	+10.1
308.30	7.3201E+5	4.5241	0.0528	+5.5
308.50	7.3251E+5	4.5269	0.0534	+8.8
308.69	7.3301E+5	4.5241	0.0510	+8.2
308.89	7.3351E+5	4.5269	0.0510	-0.7
309.07	7.3401E+5	4.5227	0.0521	+7.0
309.24	7.3451E+5	4.5212	0.0517	+4.9
309.42	7.3501E+5	4.5212	0.0541	-1.2
309.60	7.3551E+5	4.5227	0.0518	+1.9
309.80	7.3601E+5	4.5269	0.0514	+0.3
309.98	7.3651E+5	4.5255	0.0514	-0.8
310.17	7.3701E+5	4.5212	0.0498	-2.3
310.35	7.3751E+5	4.5198	Inf	+4.1
310.53	7.3801E+5	4.5227	0.0508	-349.5
310.73	7.3851E+5	4.5255	0.0512	+349.1
310.90	7.3901E+5	4.5227	Inf	-2.3
311.06	7.3951E+5	4.5227	0.0506	-355.9
311.23	7.4001E+5	4.5255	0.0519	+3.3
311.43	7.4051E+5	4.5170	0.0513	-3.6
311.61	7.4101E+5	4.5311	0.0555	-10.6
311.81	7.4151E+5	4.5227	Inf	+6.7
311.98	7.4201E+5	4.5212	Inf	+2.4
312.16	7.4251E+5	4.5198	0.0516	+3.1
312.35	7.4301E+5	4.5212	0.0583	-5.6
312.55	7.4351E+5	4.5269	0.0503	+8.1
312.75	7.4401E+5	4.5297	0.0520	+3.6
312.93	7.4451E+5	4.5241	0.0516	+9.5
313.13	7.4501E+5	4.5241	0.0520	+6.7
313.31	7.4551E+5	4.5227	0.0506	+0.0
313.51	7.4601E+5	4.5212	Inf	+5.9
313.68	7.4651E+5	4.5227	Inf	+Inf
313.86	7.4701E+5	4.5297	0.0504	+4.0
314.01	7.4751E+5	4.5269	0.0579	-14.2
314.21	7.4801E+5	4.5227	0.0525	+1.3
314.39	7.4851E+5	4.5227	Inf	+9.7
314.57	7.4901E+5	4.5241	0.0515	+12.2
314.76	7.4951E+5	4.5212	0.0515	+1.6
314.94	7.5001E+5	4.5184	0.0602	-9.6
315.14	7.5051E+5	4.5198	Inf	+373.5
315.31	7.5101E+5	4.5227	0.0514	+357.2
315.51	7.5151E+5	4.5198	Inf	+7.0
315.67	7.5201E+5	4.5184	Inf	+2.6
315.85	7.5251E+5	4.5255	0.0577	-3.5
316.02	7.5301E+5	4.5255	0.0504	+0.0
316.22	7.5351E+5	4.5170	0.0582	-14.3
316.39	7.5401E+5	4.5241	Inf	+364.8
316.57	7.5451E+5	4.5241	0.0497	+6.7
316.75	7.5501E+5	4.5255	0.0507	+0.3
316.95	7.5551E+5	4.5227	0.0505	+354.7
317.12	7.5601E+5	4.5255	0.0498	+7.6
317.32	7.5651E+5	4.5255	Inf	+4.1
317.49	7.5701E+5	4.5311	0.0510	+7.9
317.68	7.5751E+5	4.5227	0.0501	-352.5
317.87	7.5801E+5	4.5241	0.0506	-346.6
318.07	7.5851E+5	4.5212	0.0604	-23.7
318.25	7.5901E+5	4.5227	0.0500	+8.9
318.45	7.5951E+5	4.5198	Inf	+356.7
318.63	7.6001E+5	4.5212	0.0496	-356.6
318.80	7.6051E+5	4.5198	0.0513	+0.3
319.00	7.6101E+5	4.5241	Inf	-1.5
319.17	7.6151E+5	4.5227	0.0504	+1.8
319.35	7.6201E+5	4.5212	0.0499	+354.4
319.53	7.6251E+5	4.5255	Inf	-6.9
319.71	7.6301E+5	4.5227	Inf	+0.6
319.88	7.6351E+5	4.5227	Inf	+Inf
320.05	7.6401E+5	4.5283	0.0510	-2.6
320.23	7.6451E+5	4.5170	0.0507	+358.9
320.41	7.6501E+5	4.5184	0.0507	+10.2
320.58	7.6551E+5	4.5283	Inf	+3.7
320.76	7.6601E+5	4.5170	Inf	+6.7
320.91	7.6651E+5	4.5212	0.0487	+0.4
321.11	7.6701E+5	4.5255	Inf	-4.7
321.27	7.6751E+5	4.5212	0.0512	+12.2
321.48	7.6801E+5	4.5212	0.0488	-346.2
321.66	7.6851E+5	4.5156	0.0499	+6.5
321.84	7.6901E+5	4.5283	0.0501	-349.5
322.01	7.6951E+5	4.5198	0.0492	+356.8
322.19	7.7001E+5	4.5241	0.0542	-3.5
322.37	7.7051E+5	4.5198	0.0489	-6.1
322.57	7.7101E+5	4.5255	0.0500	-6.1
322.74	7.7151E+5	4.5212	0.0529	+10.0
322.94	7.7201E+5	4.5128	0.0500	-354.1
323.12	7.7251E+5	4.5255	Inf	+1.5
323.31	7.7301E+5	4.5142	Inf	+2.4
323.47	7.7351E+5	4.5212	0.0492	+1.8
323.65	7.7401E+5	4.5170	0.0498	-356.0
323.82	7.7451E+5	4.5198	0.0509	+353.7
324.02	7.7501E+5	4.5212	0.0496	+354.7
324.20	7.7551E+5	4.5212	0.0482	+1.9
324.40	7.7601E+5	4.5255	Inf	+9.2
324.57	7.7651E+5	4.5311	0.0480	-350.8
324.75	7.7701E+5	4.5269	Inf	+3.2
324.92	7.7751E+5	4.5241	Inf	+2.7
325.10	7.7801E+5	4.5227	0.0491	+0.1
325.29	7.7851E+5	4.5156	0.0502	+352.1
325.47	7.7901E+5	4.5255	0.0485	+4.2
325.65	7.7951E+5	4.5198	0.0487	+5.2
325.83	7.8001E+5	4.5198	Inf	-8.0
326.00	7.8051E+5	4.5099	0.0484	+356.1
326.20	7.8101E+5	4.5205	0.0535	-6.3
326.40	7.8151E+5	4.5212	Inf	-1.0
326.58	7.8201E+5	4.5227	0.0478	+357.3
326.76	7.8251E+5	4.5184	0.0488	+352.7
326.95	7.8301E+5	4.5227	0.0517	+4.2
327.13	7.8351E+5	4.5184	Inf	-6.9
327.31	7.8401E+5	4.5170	0.0491	+1.3
327.50	7.8451E+5	4.5170	0.0492	+1.5
327.68	7.8501E+5	4.5241	0.0472	+354.3
327.86	7.8551E+5	4.5198	Inf	+6.4
328.04	7.8601E+5	4.5170	0.0656	+36.2
328.23	7.8651E+5	4.5241	Inf	+2.7
328.41	7.8701E+5	4.5184	0.0495	-350.7
328.59	7.8751E+5	4.5156	0.0542	+0.9
328.79	7.8801E+5	4.5311	Inf	-1.3
328.96	7.8851E+5	4.5255	0.0497	+352.2
329.16	7.8901E+5	4.5142	0.0482	+1.8
329.34	7.8951E+5	4.5255	0.0488	+4.7
329.54	7.9001E+5	4.5170	0.0480	+7.3
329.73	7.9051E+5	4.5184	0.0478	+353.2
329.89	7.9101E+5	4.5198	0.0487	+1.6
330.07	7.9151E+5	4.5156	0.0492	-349.4
330.26	7.9201E+5	4.5170	0.0498	+347.8
330.44	7.9251E+5	4.5184	0.0490	-1.6
330.61	7.9301E+5	4.5128	Inf	-0.3
330.79	7.9351E+5	4.5212	0.0494	-2.3
330.96	7.9401E+5	4.5212	0.0492	-350.7
331.14	7.9451E+5	4.5212	0.0487	-352.6
331.32	7.9501E+5	4.5255	Inf	-4.1
331.50	7.9551E+5	4.5184	0.0477	+3.1
331.67	7.9601E+5	4.5198	0.0480	-353.4
331.85	7.9651E+5	4.5241	Inf	+337.0
332.02	7.9701E+5	4.5085	0.0494	+8.6
332.24	7.9751E+5	4.5142	0.0492	+7.3
332.42	7.9801E+5	4.5128	0.0484	+8.1
332.62	7.9851E+5	4.5198	0.0480	-5.2
332.79	7.9901E+5	4.5227	0.0481	-359.0
332.97	7.9951E+5	4.5057	0.0470	-356.5
333.17	8.0001E+5	4.5140	0.0548	+2.0
333.37	8.0051E+5	4.5198	0.0480	-352.5
333.57	8.0101E+5	4.5142	Inf	-15.7
333.73	8.0151E+5	4.5099	Inf	+2.3
333.93	8.0201E+5	4.5194	Inf	+5.8
334.12	8.0251E+5	4.5198	0.0475	+0.7
334.30	8.0301E+5	4.5170	0.0525	-5.0
334.48	8.0351E+5	4.5227	0.0473	-0.7
334.68	8.0401E+5	4.5241	0.0483	+3.0
334.86	8.0451E+5	4.5170	0.0485	+3.0
335.05	8.0501E+5	4.5212	Inf	+5.7
335.21	8.0551E+5	4.5170	0.0471	+4.3
335.41	8.0601E+5	4.5198	0.0523	+9.1
335.60	8.0651E+5	4.5198	Inf	+4.5
335.78	8.0701E+5	4.5170	Inf	+10.0
335.94	8.0751E+5	4.5170	0.0477	-353.3
336.13	8.0801E+5	4.5184	0.0474	-356.4
336.31	8.0851E+5	4.5156	0.0478	-1.9
336.48	8.0901E+5	4.5212	0.0495	+5.1
336.68	8.0951E+5	4.5241	0.0526	-4.2
336.86	8.1001E+5	4.5071	Inf	+343.6
337.06	8.1051E+5	4.5194	Inf	+5.7
337.24	8.1101E+5	4.5198	0.0464	-354.5
337.44	8.1151E+5	4.5170	0.0472	+4.1
337.61	8.1201E+5	4.5184	0.0465	+2.6
337.79	8.1251E+5	4.5142	Inf	+6.4
337.96	8.1301E+5	4.5198	0.0484	-5.7
338.14	8.1351E+5	4.5156	0.0472	+2.5
338.34	8.1401E+5	4.5198	Inf	-11.1
338.51	8.1451E+5	4.5283	Inf	-0.7
338.69	8.1501E+5	4.5198	0.0470	+0.6
338.85	8.1551E+5	4.5184	0.0467	-348.0
339.04	8.1601E+5	4.5170	0.0489	-349.1
339.22	8.1651E+5	4.5113	Inf	+10.0
339.42	8.1701E+5	4.5129	Inf	+12.4
339.60	8.1751E+5	4.5198	Inf	-13.1
339.79	8.1801E+5	4.5099	Inf	+2.5
339.97	8.1851E+5	4.5147	Inf	+1.0
340.15	8.1901E+5	4.5198	0.0485	+0.0
340.35	8.1951E+5	4.5184	0.0469	-350.6
340.54	8.2001E+5	4.5071	0.0474	+353.1
340.75	8.2051E+5	4.5146	0.0469	-352.9
340.95	8.2101E+5	4.5170	0.0467	+4.4
341.13	8.2151E+5	4.5128	0.0463	+0.6
341.30	8.2201E+5	4.5156	Inf	+0.3
341.48	8.2251E+5	4.5113	0.0474	+355.3
341.68	8.2301E+5	4.5170	0.0463	-2.4
341.88	8.2351E+5	4.5156	0.0446	-356.9
342.08	8.2401E+5	4.5198	Inf	+1.8
342.23	8.2451E+5	4.5212	0.0473	+0.6
342.43	8.2501E+5	4.5128	0.0468	+357.8
342.60	8.2551E+5	4.5170	Inf	+3.9
342.78	8.2601E+5	4.5184	0.0466	-354.9
342.95	8.2651E+5	4.5184	Inf	+8.6
343.11	8.2701E+5	4.5198	0.0477	+2.5
343.31	8.2751E+5	4.5128	0.0460	+3.4
343.50	8.2801E+5	4.5142	Inf	-18.2
343.68	8.2851E+5	4.5085	0.0464	-357.5
343.86	8.2901E+5	4.5112	0.0463	+0.6
344.04	8.2951E+5	4.5260	0.0467	-1.5
344.21	8.3001E+5	4.5156	Inf	-10.9
344.39	8.3051E+5	4.5198	0.0444	+349.3
344.58	8.3101E+5	4.5241	Inf	-4.2
344.74	8.3151E+5	4.5113	0.0480	+354.5
344.96	8.3201E+5	4.5139	0.0455	+0.9
345.16	8.3251E+5	4.5198	0.0461	-359.3
345.36	8.3301E+5	4.5142	0.0456	+349.5
345.54	8.3351E+5	4.5071	Inf	+3.9
345.74	8.3401E+5	4.5143	Inf	-2.0
345.93	8.3451E+5	4.5142	0.0457	-0.9
346.09	8.3501E+5	4.5128	Inf	-2.7
346.27	8.3551E+5	4.5156	Inf	-1.7
346.44	8.3601E+5	4.5156	Inf	+0.3
346.62	8.3651E+5	4.5255	0.0452	-353.8
346.79	8.3701E+5	4.5170	0.0459	+355.5
346.97	8.3751E+5	4.5113	Inf	+5.9
347.15	8.3801E+5	4.5091	Inf	+3.5
347.32	8.3851E+5	4.5142	Inf	+0.2
347.52	8.3901E+5	4.5071	0.0543	-19.6
347.72	8.3951E+5	4.5194	0.0462	+351.1
347.94	8.4001E+5	4.5241	0.0463	+353.0
348.10	8.4051E+5	4.5099	0.0475	+358.5
348.32	8.4101E+5	4.5125	0.0479	-350.7
348.50	8.4151E+5	4.5128	0.0454	-3.5
348.68	8.4201E+5	4.5156	Inf	-354.7
348.87	8.4251E+5	4.5184	0.0540	-22.3
349.05	8.4301E+5	4.5142	0.0467	+6.5
349.25	8.4351E+5	4.5142	0.0459	-1.5
349.43	8.4401E+5	4.5198	0.0465	-4.9
349.63	8.4451E+5	4.5142	0.0468	-349.2
349.80	8.4501E+5	4.5113	Inf	+350.3
349.98	8.4551E+5	4.5123	0.0468	-351.0
350.18	8.4601E+5	4.5128	Inf	-23.1
350.35	8.4651E+5	4.5184	Inf	+2.4
350.53	8.4701E+5	4.5170	0.0459	-357.3
350.71	8.4751E+5	4.5212	0.0456	-6.3
350.88	8.4801E+5	4.5113	0.0445	-354.8
351.10	8.4851E+5	4.5177	Inf	-4.6
351.28	8.4901E+5	4.5128	0.0458	+2.8
351.48	8.4951E+5	4.5099	Inf	-14.1
351.66	8.5001E+5	4.5094	0.0450	-351.9
351.84	8.5051E+5	4.5178	0.0450	+0.2
352.03	8.5101E+5	4.5128	0.0450	+0.8
352.19	8.5151E+5	4.5170	0.0441	+1.4
352.39	8.5201E+5	4.5099	0.0448	+7.7
352.59	8.5251E+5	4.5167	Inf	+348.2
352.79	8.5301E+5	4.5113	0.0451	-2.4
352.96	8.5351E+5	4.5150	0.0466	+354.5
353.16	8.5401E+5	4.5156	0.0502	-361.7
353.36	8.5451E+5	4.5057	Inf	+5.1
353.54	8.5501E+5	4.5113	Inf	-2.2
353.72	8.5551E+5	4.5085	0.0510	-363.5
353.91	8.5601E+5	4.5126	0.0446	-354.8
354.11	8.5651E+5	4.5198	0.0490	+358.9
354.30	8.5701E+5	4.5029	0.0463	+0.9
354.50	8.5751E+5	4.5044	0.0447	+2.9
354.70	8.5801E+5	4.5095	0.0444	-357.1
354.89	8.5851E+5	4.5170	Inf	-9.1
355.09	8.5901E+5	4.5113	Inf	+5.9
355.27	8.5951E+5	4.5111	Inf	+1.1
355.44	8.6001E+5	4.5089	0.0464	+355.8
355.64	8.6051E+5	4.5088	Inf	+5.1
355.80	8.6101E+5	4.5145	0.0448	-1.4
356.02	8.6151E+5	4.5071	0.0471	+343.7
356.22	8.6201E+5	4.5157	0.0441	+2.6
356.42	8.6251E+5	4.5099	0.0464	+0.9
356.63	8.6301E+5	4.5204	0.0493	-7.5
356.83	8.6351E+5	4.5128	0.0460	-360.8
357.03	8.6401E+5	4.5057	0.0444	+356.1
357.23	8.6451E+5	4.5210	Inf	-1.4
357.41	8.6501E+5	4.5128	Inf	+2.8
357.60	8.6551E+5	4.5113	0.0452	+358.3
357.80	8.6601E+5	4.5139	0.0466	-357.7
358.01	8.6651E+5	4.5085	0.0466	-357.4
358.20	8.6701E+5	4.5125	0.0454	-10.0
358.40	8.6751E+5	4.5029	0.0456	-355.6
358.60	8.6801E+5	4.5116	Inf	-0.3
358.78	8.6851E+5	4.5113	0.0445	+3.1
359.00	8.6901E+5	4.5183	Inf	-5.8
359.18	8.6951E+5	4.5113	0.0450	-358.1
359.38	8.7001E+5	4.5078	0.0446	+1.4
359.56	8.7051E+5	4.5125	0.0449	-6.9
359.73	8.7101E+5	4.5128	0.0444	-0.8
359.93	8.7151E+5	4.5170	0.0455	+359.2
360.11	8.7201E+5	4.5113	0.0460	-361.7
360.31	8.7251E+5	4.5071	0.0439	+0.8
360.51	8.7301E+5	4.5159	Inf	-15.7
360.69	8.7351E+5	4.5113	Inf	+0.3
360.89	8.7401E+5	4.5163	Inf	+2.8
361.07	8.7451E+5	4.5142	0.0443	+355.0
361.24	8.7501E+5	4.5113	Inf	+5.2
361.44	8.7551E+5	4.5173	0.0446	+358.9
361.64	8.7601E+5	4.5085	0.0449	-9.5
361.82	8.7651E+5	4.5033	Inf	+0.5
361.99	8.7701E+5	4.5145	0.0444	+0.6
362.19	8.7751E+5	4.5113	Inf	+1.4
362.39	8.7801E+5	4.5193	0.0439	+4.9
362.57	8.7851E+5	4.5085	Inf	+2.1
362.76	8.7901E+5	4.5187	0.0450	-357.5
362.97	8.7951E+5	4.5099	0.0445	-355.6
363.17	8.8001E+5	4.5133	0.0507	-14.1
363.38	8.8051E+5	4.5057	0.0462	-0.5
363.58	8.8101E+5	4.5152	0.0445	+6.8
363.79	8.8151E+5	4.5128	Inf	-8.3
363.97	8.8201E+5	4.5099	Inf	-6.3
364.15	8.8251E+5	4.5047	Inf	-13.2
364.33	8.8301E+5	4.5145	0.0442	+2.2
364.52	8.8351E+5	4.5071	0.0444	-0.8
364.70	8.8401E+5	4.5074	0.0437	-1.1
364.88	8.8451E+5	4.5102	Inf	-2.7
365.05	8.8501E+5	4.5115	0.0446	+2.4
365.25	8.8551E+5	4.5113	Inf	-0.8
365.45	8.8601E+5	4.5136	0.0447	+358.7
365.63	8.8651E+5	4.5099	0.0447	+349.0
365.83	8.8701E+5	4.5061	0.0454	+362.9
366.00	8.8751E+5	4.5147	0.0458	-350.6
366.18	8.8801E+5	4.5198	Inf	+2.4
366.36	8.8851E+5	4.5057	0.0438	-357.0
366.56	8.8901E+5	4.5186	0.0456	-360.6
366.76	8.8951E+5	4.5128	0.0429	+6.9
366.96	8.9001E+5	4.5057	0.0445	-356.6
367.16	8.9051E+5	4.5149	0.0434	+3.5
367.36	8.9101E+5	4.5128	0.0443	+4.3
367.53	8.9151E+5	4.5029	0.0438	+0.3
367.71	8.9201E+5	4.5081	0.0432	-1.0
367.89	8.9251E+5	4.5137	Inf	+10.9
368.07	8.9301E+5	4.5071	Inf	+7.2
368.26	8.9351E+5	4.5143	0.0458	+358.6
368.48	8.9401E+5	4.5128	Inf	+0.2
368.64	8.9451E+5	4.5057	0.0450	-358.1
368.84	8.9501E+5	4.5026	0.0434	+1.3
369.02	8.9551E+5	4.5077	0.0437	-4.8
369.19	8.9601E+5	4.5084	0.0436	+1.8
369.37	8.9651E+5	4.5122	0.0453	+355.3
369.57	8.9701E+5	4.5099	0.0448	+358.1
369.76	8.9751E+5	4.5164	Inf	-3.4
369.95	8.9801E+5	4.5099	Inf	-0.6
370.14	8.9851E+5	4.5094	Inf	-2.9
370.32	8.9901E+5	4.5177	0.0447	-7.1
370.50	8.9951E+5	4.5071	0.0447	+349.8
370.69	9.0001E+5	4.5099	Inf	-15.6
370.87	9.0051E+5	4.5034	0.0441	+359.5
371.04	9.0101E+5	4.5031	Inf	+1.1
371.20	9.0151E+5	4.5094	0.0437	-1.6
371.37	9.0201E+5	4.4959	0.0424	-356.4
371.55	9.0251E+5	4.5176	Inf	-12.4
371.75	9.0301E+5	4.5057	0.0441	+354.3
371.95	9.0351E+5	4.5075	Inf	-9.7
372.12	9.0401E+5	4.5043	0.0433	-1.1
372.30	9.0451E+5	4.5089	0.0457	+355.0
372.48	9.0501E+5	4.5024	Inf	+1.0
372.65	9.0551E+5	4.5129	Inf	-2.3
372.85	9.0601E+5	4.5014	0.0433	-6.5
373.05	9.0651E+5	4.5163	0.0437	+2.4
373.23	9.0701E+5	4.5071	0.0458	+359.2
373.45	9.0751E+5	4.5149	0.0467	-360.3
373.65	9.0801E+5	4.5085	0.0436	-4.3
373.86	9.0851E+5	4.5094	0.0468	+361.2
374.05	9.0901E+5	4.5072	0.0463	+356.4
374.21	9.0951E+5	4.5109	0.0441	+2.5
374.41	9.1001E+5	4.5047	0.0434	+355.4
374.58	9.1051E+5	4.5089	0.0443	-359.3
374.75	9.1101E+5	4.5126	0.0439	-0.2
374.94	9.1151E+5	4.5085	Inf	+340.3
375.13	9.1201E+5	4.5037	0.0429	-356.2
375.29	9.1251E+5	4.4985	Inf	-3.1
375.48	9.1301E+5	4.5082	0.0436	+7.4
375.66	9.1351E+5	4.5070	0.0449	+357.2
375.86	9.1401E+5	4.5026	0.0431	+352.6
376.04	9.1451E+5	4.5075	Inf	-6.6
376.21	9.1501E+5	4.5071	Inf	-5.8
376.39	9.1551E+5	4.5089	Inf	-1.2
376.56	9.1601E+5	4.5036	0.0438	+359.8
376.74	9.1651E+5	4.5013	Inf	+347.8
376.92	9.1701E+5	4.5071	Inf	-8.7
377.09	9.1751E+5	4.5118	Inf	-22.1
377.27	9.1801E+5	4.5085	Inf	+349.4
377.47	9.1851E+5	4.5081	Inf	+8.9
377.64	9.1901E+5	4.5156	0.0449	+361.2
377.84	9.1951E+5	4.5085	0.0473	-354.4
378.06	9.2001E+5	4.5108	0.0479	-361.0
378.24	9.2051E+5	4.5020	0.0424	-2.6
378.44	9.2101E+5	4.5104	0.0439	-356.2
378.62	9.2151E+5	4.5053	0.0439	+360.3
378.79	9.2201E+5	4.5043	Inf	+346.9
378.97	9.2251E+5	4.5122	0.0429	+3.7
379.17	9.2301E+5	4.5113	Inf	+5.5
379.35	9.2351E+5	4.5029	Inf	+7.2
379.53	9.2401E+5	4.5137	Inf	+2.0
379.72	9.2451E+5	4.5014	Inf	+350.0
379.90	9.2501E+5	4.5061	Inf	-1.0
380.08	9.2551E+5	4.4978	Inf	+345.3
380.25	9.2601E+5	4.5099	0.0424	-1.2
380.42	9.2651E+5	4.5084	0.0425	+3.0
380.60	9.2701E+5	4.5128	0.0431	+1.0
380.78	9.2751E+5	4.5099	Inf	-5.5
380.96	9.2801E+5	4.5088	0.0431	+1.5
381.17	9.2851E+5	4.5068	0.0439	+360.7
381.33	9.2901E+5	4.4986	0.0447	-361.3
381.51	9.2951E+5	4.5053	0.0433	-7.5
381.71	9.3001E+5	4.5089	Inf	-0.3
381.88	9.3051E+5	4.5092	Inf	+1.3
382.06	9.3101E+5	4.5088	Inf	+345.7
382.23	9.3151E+5	4.5040	0.0436	+358.0
382.39	9.3201E+5	4.5058	0.0422	-1.7
382.59	9.3251E+5	4.5030	Inf	+3.5
382.76	9.3301E+5	4.5070	0.0448	+361.3
382.94	9.3351E+5	4.5084	0.0433	-353.4
383.14	9.3401E+5	4.5020	Inf	-11.6
383.31	9.3451E+5	4.4995	Inf	+4.0
383.48	9.3501E+5	4.5017	Inf	-1.5
383.66	9.3551E+5	4.5108	0.0435	-360.7
383.82	9.3601E+5	4.5000	0.0433	+1.0
383.99	9.3651E+5	4.5085	0.0426	+4.4
384.19	9.3701E+5	4.5013	0.0424	+1.0
384.36	9.3751E+5	4.5002	0.0433	-356.3
384.54	9.3801E+5	4.4978	Inf	-1.9
384.72	9.3851E+5	4.4925	Inf	+347.1
384.89	9.3901E+5	4.5041	0.0431	+357.3
385.07	9.3951E+5	4.4986	Inf	-2.4
385.24	9.4001E+5	4.4985	0.0429	-9.1
385.41	9.4051E+5	4.5043	0.0438	-352.0
385.59	9.4101E+5	4.5047	Inf	-2.2
385.77	9.4151E+5	4.5063	0.0444	-362.4
385.94	9.4201E+5	4.5024	0.0436	-360.0
386.10	9.4251E+5	4.4992	Inf	+1.5
386.29	9.4301E+5	4.5009	Inf	-1.0
386.45	9.4351E+5	4.4924	0.0425	+357.3
386.64	9.4401E+5	4.5041	Inf	+1.4
386.82	9.4451E+5	4.4988	0.0442	+360.3
387.00	9.4501E+5	4.5071	Inf	-2.6
387.15	9.4551E+5	4.5057	0.0445	-363.7
387.33	9.4601E+5	4.5085	0.0426	-352.0
387.52	9.4651E+5	4.5065	0.0443	+360.5
387.70	9.4701E+5	4.5081	Inf	-1.5
387.88	9.4751E+5	4.5037	Inf	+340.4
388.05	9.4801E+5	4.5037	0.0425	-2.2
388.23	9.4851E+5	4.4990	Inf	+356.9
388.42	9.4901E+5	4.5007	Inf	-354.9
388.58	9.4951E+5	4.5020	Inf	-8.7
388.75	9.5001E+5	4.5031	0.0426	+0.3
388.91	9.5051E+5	4.5072	0.0494	+357.4
389.10	9.5101E+5	4.5061	Inf	-13.0
389.26	9.5151E+5	4.5058	0.0440	+0.0
389.46	9.5201E+5	4.4996	0.0426	-2.4
389.65	9.5251E+5	4.5067	0.0419	-2.6
389.80	9.5301E+5	4.5095	Inf	+351.1
389.98	9.5351E+5	4.5041	0.0419	+2.9
390.14	9.5401E+5	4.4990	Inf	-14.9
390.29	9.5451E+5	4.4958	Inf	-24.6
390.46	9.5501E+5	4.4983	Inf	+1.7
390.61	9.5551E+5	4.4969	Inf	+2.1
390.78	9.5601E+5	4.5023	0.0444	+356.7
390.98	9.5651E+5	4.5010	0.0431	-356.4
391.16	9.5701E+5	4.4989	Inf	+346.7
391.32	9.5751E+5	4.4985	Inf	-4.7
391.51	9.5801E+5	4.4952	Inf	+0.0
391.68	9.5851E+5	4.5014	0.0423	-4.8
391.84	9.5901E+5	4.5063	0.0414	-1.7
392.02	9.5951E+5	4.5036	0.0430	-359.8
392.19	9.6001E+5	4.5010	Inf	+347.8
392.36	9.6051E+5	4.5037	Inf	-1.0
392.54	9.6101E+5	4.5071	0.0460	+359.7
392.72	9.6151E+5	4.5064	Inf	+351.9
392.89	9.6201E+5	4.4962	Inf	-7.3
393.07	9.6251E+5	4.5099	0.0430	+358.3
393.25	9.6301E+5	4.4972	Inf	+333.4
393.42	9.6351E+5	4.5081	0.0443	+0.2
393.62	9.6401E+5	4.5053	Inf	-29.9
393.79	9.6451E+5	4.5038	Inf	+6.4
393.95	9.6501E+5	4.5037	Inf	-0.7
394.14	9.6551E+5	4.5024	0.0426	+360.2
394.32	9.6601E+5	4.5041	0.0428	+361.9
394.49	9.6651E+5	4.5007	Inf	+4.5
394.67	9.6701E+5	4.4934	0.0434	-358.4
394.85	9.6751E+5	4.5047	0.0429	-6.8
395.04	9.6801E+5	4.5040	0.0417	-1.0
395.20	9.6851E+5	4.5070	0.0415	-6.8
395.40	9.6901E+5	4.4976	0.0424	+4.7
395.58	9.6951E+5	4.5085	0.0433	-359.1
395.77	9.7001E+5	4.5030	0.0421	-359.1
395.97	9.7051E+5	4.5020	Inf	+345.5
396.13	9.7101E+5	4.4982	0.0456	-354.4
396.31	9.7151E+5	4.4976	Inf	-2.8
396.50	9.7201E+5	4.5005	0.0439	+363.2
396.68	9.7251E+5	4.5068	0.0438	+357.9
396.85	9.7301E+5	4.5003	Inf	-14.2
397.03	9.7351E+5	4.5041	Inf	-348.8
397.20	9.7401E+5	4.5016	0.0414	-8.2
397.38	9.7451E+5	4.5030	0.0408	-3.3
397.56	9.7501E+5	4.5046	0.0443	-364.6
397.75	9.7551E+5	4.5065	0.0432	+356.7
397.91	9.7601E+5	4.4973	Inf	-9.0
398.10	9.7651E+5	4.4962	0.0417	+1.2
398.28	9.7701E+5	4.5000	Inf	-13.6
398.44	9.7751E+5	4.5043	Inf	+4.9
398.63	9.7801E+5	4.4915	0.0426	-2.5
398.81	9.7851E+5	4.5071	0.0419	-5.6
398.96	9.7901E+5	4.4958	0.0415	-5.4
399.14	9.7951E+5	4.4986	0.0412	+2.8
399.33	9.8001E+5	4.5014	0.0420	-360.4
399.51	9.8051E+5	4.4944	0.0413	-4.4
399.69	9.8101E+5	4.5000	Inf	+0.4
399.87	9.8151E+5	4.4930	Inf	+7.2
400.04	9.8201E+5	4.4986	0.0447	+355.8
400.22	9.8251E+5	4.4930	Inf	-354.0
400.39	9.8301E+5	4.5000	0.0418	+354.3
400.56	9.8351E+5	4.5071	Inf	-357.2
400.72	9.8401E+5	4.4972	0.0418	+2.8
400.90	9.8451E+5	4.4944	0.0421	+361.2
401.07	9.8501E+5	4.4944	0.0422	-1.2
401.24	9.8551E+5	4.4972	Inf	-1.4
401.40	9.8601E+5	4.5043	0.0414	-0.7
401.60	9.8651E+5	4.4887	Inf	-16.1
401.77	9.8701E+5	4.4986	0.0423	-4.6
401.95	9.8751E+5	4.4986	Inf	-2.0
402.14	9.8801E+5	4.4986	0.0417	+362.1
402.30	9.8851E+5	4.4986	Inf	-1.6
402.47	9.8901E+5	4.5029	0.0413	-4.6
402.67	9.8951E+5	4.5000	Inf	-0.5
402.83	9.9001E+5	4.4972	Inf	-358.4
403.00	9.9051E+5	4.4930	Inf	-3.9
403.18	9.9101E+5	4.5057	0.0402	-4.4
403.37	9.9151E+5	4.4972	Inf	-0.2
403.53	9.9201E+5	4.5000	Inf	-354.1
403.70	9.9251E+5	4.4915	Inf	-0.5
403.88	9.9301E+5	4.4915	Inf	-13.2
404.05	9.9351E+5	4.4958	0.0409	+3.0
404.21	9.9401E+5	4.5057	0.0432	+353.4
404.42	9.9451E+5	4.4915	0.0442	-363.2
404.58	9.9501E+5	4.4944	0.0427	+361.3
404.76	9.9551E+5	4.5000	Inf	+6.4
404.95	9.9601E+5	4.5000	0.0411	-5.4
405.11	9.9651E+5	4.5029	0.0429	+358.9
405.30	9.9701E+5	4.4986	0.0419	+360.7
405.48	9.9751E+5	4.4972	0.0411	-6.5
405.66	9.9801E+5	4.4972	0.0407	-9.4
405.83	9.9851E+5	4.4915	0.0434	+355.1
406.01	9.9901E+5	4.5014	0.0420	-358.4
406.21	9.9951E+5	4.4930	0.0418	-4.5
406.38	1.0000E+6	4.4901	Inf	+5.1
406.54	1.0005E+6	4.4958	0.0414	+1.1
406.73	1.0010E+6	4.5029	Inf	-352.6
406.89	1.0015E+6	4.4887	Inf	+352.2
407.06	1.0020E+6	4.5000	Inf	-33.9
407.24	1.0025E+6	4.4915	0.0401	-2.0
407.43	1.0030E+6	4.4887	Inf	+11.9
407.59	1.0035E+6	4.4859	0.0411	+1.6
407.77	1.0040E+6	4.4930	0.0413	-0.7
407.94	1.0045E+6	4.4958	0.0405	-4.1
408.11	1.0050E+6	4.4958	Inf	-8.5
408.27	1.0055E+6	4.4958	Inf	-1.6
408.45	1.0060E+6	4.5000	0.0406	-2.4
408.62	1.0065E+6	4.4972	0.0424	+361.6
408.81	1.0070E+6	4.4944	Inf	+0.7
408.97	1.0075E+6	4.4887	0.0393	+3.8
409.17	1.0080E+6	4.4944	0.0412	+3.8
409.34	1.0085E+6	4.4930	0.0442	-365.1
409.52	1.0090E+6	4.4972	0.0446	+361.3
409.72	1.0095E+6	4.5057	Inf	+360.5
409.89	1.0100E+6	4.4901	0.0436	+364.2
410.07	1.0105E+6	4.4887	Inf	+6.4
410.25	1.0110E+6	4.4915	Inf	-8.5
410.42	1.0115E+6	4.4930	Inf	-0.4
410.58	1.0120E+6	4.4930	0.0407	-1.8
410.77	1.0125E+6	4.4873	Inf	+345.4
410.95	1.0130E+6	4.5014	0.0409	+360.0
411.12	1.0135E+6	4.4944	0.0416	+355.1
411.28	1.0140E+6	4.5029	Inf	+1.1
411.47	1.0145E+6	4.4887	Inf	+364.0
411.63	1.0150E+6	4.4944	Inf	-350.0
411.80	1.0155E+6	4.4972	Inf	-2.6
411.96	1.0160E+6	4.4986	0.0413	+0.2
412.15	1.0165E+6	4.5043	Inf	-351.6
412.31	1.0170E+6	4.4986	Inf	+7.3
412.48	1.0175E+6	4.5000	Inf	+345.7
412.66	1.0180E+6	4.5029	0.0409	+4.0
412.83	1.0185E+6	4.4930	0.0404	+4.0
412.98	1.0190E+6	4.4930	Inf	-362.0
413.15	1.0195E+6	4.5000	0.0416	-2.6
413.31	1.0200E+6	4.4958	0.0414	+2.0
413.48	1.0205E+6	4.4915	0.0410	-1.8
413.64	1.0210E+6	4.4901	Inf	+342.9
413.83	1.0215E+6	4.4944	0.0409	-1.1
414.00	1.0220E+6	4.4915	0.0415	+1.5
414.16	1.0225E+6	4.4901	Inf	-0.9
414.33	1.0230E+6	4.4958	0.0422	+1.7
414.53	1.0235E+6	4.4887	0.0420	+0.9
414.69	1.0240E+6	4.4958	0.0413	+357.2
414.86	1.0245E+6	4.4986	Inf	+344.6
415.04	1.0250E+6	4.4944	Inf	+3.0
415.21	1.0255E+6	4.4944	Inf	-1.7
415.36	1.0260E+6	4.4930	0.0394	-4.4
415.52	1.0265E+6	4.4944	0.0407	-3.0
415.72	1.0270E+6	4.4915	Inf	-11.8
415.89	1.0275E+6	4.4901	Inf	+9.9
416.04	1.0280E+6	4.4944	0.0402	-0.7
416.24	1.0285E+6	4.4873	0.0407	-1.1
416.42	1.0290E+6	4.4944	0.0421	+360.7
416.61	1.0295E+6	4.4930	Inf	-2.2
416.77	1.0300E+6	4.4930	Inf	-1.5
416.95	1.0305E+6	4.4901	0.0416	+13.7
417.14	1.0310E+6	4.4958	0.0421	-362.2
417.32	1.0315E+6	4.4859	0.0414	+358.7
417.52	1.0320E+6	4.4944	0.0407	+0.2
417.69	1.0325E+6	4.4802	0.0415	-357.8
417.87	1.0330E+6	4.4944	Inf	+352.0
418.05	1.0335E+6	4.4873	0.0420	+365.2
418.25	1.0340E+6	4.4901	0.0415	+363.2
418.44	1.0345E+6	4.4915	0.0429	-360.7
418.62	1.0350E+6	4.4901	0.0372	-10.2
418.82	1.0355E+6	4.4972	Inf	-4.5
418.98	1.0360E+6	4.4915	Inf	+345.0
419.15	1.0365E+6	4.4915	Inf	-1.9
419.32	1.0370E+6	4.4958	Inf	-8.2
419.50	1.0375E+6	4.4873	0.0399	-4.9
419.68	1.0380E+6	4.4873	0.0428	-360.7
419.87	1.0385E+6	4.4887	0.0400	-1.5
420.06	1.0390E+6	4.4915	0.0400	+5.1
420.23	1.0395E+6	4.4901	Inf	-0.6
420.40	1.0400E+6	4.4944	0.0407	+2.2
420.56	1.0405E+6	4.4873	Inf	-351.4
420.75	1.0410E+6	4.4887	Inf	+344.8
420.91	1.0415E+6	4.4944	0.0428	-365.4
421.10	1.0420E+6	4.4873	0.0396	-6.2
421.28	1.0425E+6	4.4958	0.0421	+356.4
421.48	1.0430E+6	4.4972	Inf	-360.9
421.64	1.0435E+6	4.4986	0.0413	-5.4
421.83	1.0440E+6	4.4887	Inf	-355.9
422.01	1.0445E+6	4.4831	Inf	-10.4
422.18	1.0450E+6	4.4901	Inf	+336.2
422.36	1.0455E+6	4.4930	0.0417	-362.6
422.52	1.0460E+6	4.5000	0.0422	+360.6
422.73	1.0465E+6	4.4944	0.0397	-7.6
422.91	1.0470E+6	4.4930	0.0413	+359.8
423.09	1.0475E+6	4.4859	0.0395	-0.2
423.27	1.0480E+6	4.4930	Inf	-14.7
423.46	1.0485E+6	4.4887	Inf	+6.4
423.62	1.0490E+6	4.4901	Inf	-355.3
423.79	1.0495E+6	4.4915	0.0400	+3.0
423.97	1.0500E+6	4.4887	0.0397	+1.7
424.14	1.0505E+6	4.4887	Inf	-359.8
424.29	1.0510E+6	4.5085	0.0401	-0.4
424.44	1.0515E+6	4.5128	0.0411	-364.4
424.65	1.0520E+6	4.5057	Inf	-355.3
424.84	1.0525E+6	4.5014	0.0376	-7.2
425.02	1.0530E+6	4.5085	0.0402	+7.4
425.20	1.0535E+6	4.5014	Inf	-360.6
425.39	1.0540E+6	4.4986	0.0400	+3.2
425.55	1.0545E+6	4.5071	0.0418	+364.2
425.74	1.0550E+6	4.5029	Inf	+8.9
425.92	1.0555E+6	4.5014	0.0431	-365.5
426.08	1.0560E+6	4.5085	Inf	+349.4
426.24	1.0565E+6	4.5014	0.0400	-5.9
426.42	1.0570E+6	4.5014	0.0420	+361.7
426.62	1.0575E+6	4.5085	0.0403	-4.9
426.80	1.0580E+6	4.5014	0.0404	-4.2
426.95	1.0585E+6	4.5071	0.0400	-0.2
427.13	1.0590E+6	4.5057	0.0396	+1.0
427.30	1.0595E+6	4.5029	0.0402	-1.7
427.47	1.0600E+6	4.5099	0.0400	+1.5
427.63	1.0605E+6	4.4986	Inf	+362.7
427.81	1.0610E+6	4.5142	Inf	-352.9
428.00	1.0615E+6	4.4972	0.0434	+359.6
428.20	1.0620E+6	4.4986	0.0409	-1.1
428.38	1.0625E+6	4.5099	Inf	+362.7
428.55	1.0630E+6	4.5057	Inf	-2.5
428.71	1.0635E+6	4.5071	0.0402	-1.5
428.89	1.0640E+6	4.5029	Inf	-20.7
429.06	1.0645E+6	4.5029	Inf	-0.6
429.25	1.0650E+6	4.4986	0.0405	+354.3
429.41	1.0655E+6	4.4958	0.0401	-1.5
429.60	1.0660E+6	4.4972	0.0400	-5.8
429.76	1.0665E+6	4.5099	0.0394	-9.6
429.94	1.0670E+6	4.5071	Inf	+351.0
430.11	1.0675E+6	4.4986	0.0412	+361.7
430.28	1.0680E+6	4.5043	Inf	+337.9
430.44	1.0685E+6	4.5000	Inf	+1.5
430.62	1.0690E+6	4.5043	0.0398	+359.4
430.81	1.0695E+6	4.4958	Inf	-370.0
430.98	1.0700E+6	4.5029	0.0397	-0.2
431.16	1.0705E+6	4.5043	Inf	+2.3
431.32	1.0710E+6	4.4972	Inf	+337.7
431.49	1.0715E+6	4.4972	Inf	-5.0
431.66	1.0720E+6	4.4986	0.0407	-5.6
431.86	1.0725E+6	4.5014	Inf	+362.5
432.02	1.0730E+6	4.5014	Inf	-362.3
432.17	1.0735E+6	4.5029	Inf	+343.8
432.34	1.0740E+6	4.4986	0.0392	-3.3
432.54	1.0745E+6	4.5043	Inf	-0.2
432.70	1.0750E+6	4.5085	0.0396	+2.9
432.87	1.0755E+6	4.4958	Inf	-369.7
433.04	1.0760E+6	4.4972	Inf	-365.0
433.22	1.0765E+6	4.4958	Inf	-6.0
433.38	1.0770E+6	4.5014	Inf	+361.4
433.53	1.0775E+6	4.5029	Inf	-14.9
433.70	1.0780E+6	4.5014	Inf	-367.8
433.88	1.0785E+6	4.5043	Inf	-363.9
434.04	1.0790E+6	4.5014	0.0400	-4.7
434.20	1.0795E+6	4.5071	0.0361	-4.1
434.37	1.0800E+6	4.5029	Inf	+347.2
434.55	1.0805E+6	4.4958	0.0402	+3.7
434.73	1.0810E+6	4.5043	Inf	-9.1
434.90	1.0815E+6	4.5043	0.0401	+0.2
435.05	1.0820E+6	4.5043	Inf	-3.1
435.23	1.0825E+6	4.4944	0.0334	-28.1
435.42	1.0830E+6	4.5000	0.0416	+6.6
435.60	1.0835E+6	4.5000	Inf	+365.3
435.76	1.0840E+6	4.5000	0.0403	+354.0
435.96	1.0845E+6	4.4972	0.0400	-7.8
436.13	1.0850E+6	4.5043	0.0402	-4.7
436.30	1.0855E+6	4.5014	0.0420	+366.3
436.50	1.0860E+6	4.5000	0.0367	-11.7
436.68	1.0865E+6	4.5113	Inf	-349.6
436.85	1.0870E+6	4.5043	Inf	-356.9
437.01	1.0875E+6	4.4930	Inf	+344.0
437.20	1.0880E+6	4.5043	0.0403	+2.9
437.38	1.0885E+6	4.5029	0.0391	-3.5
437.54	1.0890E+6	4.5014	0.0401	+361.8
437.71	1.0895E+6	4.5029	0.0397	-0.6
437.88	1.0900E+6	4.4944	0.0401	+1.4
438.04	1.0905E+6	4.5000	Inf	+354.1
438.21	1.0910E+6	4.4986	Inf	+336.8
438.37	1.0915E+6	4.4972	Inf	-352.0
438.54	1.0920E+6	4.5043	Inf	+327.1
438.69	1.0925E+6	4.5014	Inf	-2.8
438.84	1.0930E+6	4.4958	Inf	+3.0
439.01	1.0935E+6	4.4972	0.0399	-4.5
439.17	1.0940E+6	4.5057	Inf	+347.0
439.34	1.0945E+6	4.4972	Inf	+349.8
439.51	1.0950E+6	4.4986	0.0397	-4.9
439.65	1.0955E+6	4.5000	Inf	+7.5
439.82	1.0960E+6	4.4930	0.0385	+5.1
440.00	1.0965E+6	4.4986	Inf	+362.0
440.17	1.0970E+6	4.4958	Inf	+334.3
440.34	1.0975E+6	4.5014	0.0395	-3.6
440.54	1.0980E+6	4.4930	0.0388	-3.2
440.72	1.0985E+6	4.4958	Inf	+345.6
440.89	1.0990E+6	4.5014	0.0391	-0.8
441.05	1.0995E+6	4.5014	Inf	+336.4
441.24	1.1000E+6	4.5043	0.0409	-3.4
441.42	1.1005E+6	4.4944	0.0393	+355.6
441.58	1.1010E+6	4.4873	Inf	-3.6
441.75	1.1015E+6	4.5057	Inf	+366.0
441.93	1.1020E+6	4.5000	0.0397	-1.8
442.10	1.1025E+6	4.4944	0.0394	-3.0
442.27	1.1030E+6	4.5014	Inf	-357.2
442.42	1.1035E+6	4.4944	Inf	-5.0
442.58	1.1040E+6	4.4958	0.0388	-3.6
442.77	1.1045E+6	4.5000	Inf	+2.2
442.93	1.1050E+6	4.4986	Inf	+361.2
443.08	1.1055E+6	4.4930	Inf	-22.7
443.26	1.1060E+6	4.4958	Inf	+366.4
443.43	1.1065E+6	4.4915	Inf	-366.9
443.60	1.1070E+6	4.5000	0.0427	+366.6
443.78	1.1075E+6	4.4972	Inf	+2.6
443.95	1.1080E+6	4.5029	Inf	-1.0
444.11	1.1085E+6	4.4958	Inf	+Inf
444.28	1.1090E+6	4.4930	Inf	+353.0
444.45	1.1095E+6	4.4901	0.0403	-1.6
444.63	1.1100E+6	4.4972	0.0392	-1.6
444.83	1.1105E+6	4.4915	0.0398	-360.0
444.99	1.1110E+6	4.4915	Inf	+346.0
445.14	1.1115E+6	4.5000	Inf	-351.4
445.31	1.1120E+6	4.4901	0.0406	+356.4
445.49	1.1125E+6	4.4958	0.0407	+356.8
445.66	1.1130E+6	4.4944	0.0401	+4.0
445.83	1.1135E+6	4.4915	0.0395	-1.4
445.99	1.1140E+6	4.5029	0.0412	+365.8
446.19	1.1145E+6	4.5014	Inf	+2.0
446.36	1.1150E+6	4.5029	Inf	-359.8
446.52	1.1155E+6	4.4859	Inf	-369.8
446.69	1.1160E+6	4.5000	Inf	-6.8
446.87	1.1165E+6	4.4915	0.0408	+3.6
447.04	1.1170E+6	4.4873	0.0393	-1.2
447.21	1.1175E+6	4.4901	0.0398	-1.6
447.37	1.1180E+6	4.4944	Inf	-12.1
447.56	1.1185E+6	4.4915	0.0379	-6.0
447.74	1.1190E+6	4.4986	0.0409	+2.6
447.92	1.1195E+6	4.4901	Inf	-12.5
448.09	1.1200E+6	4.4915	Inf	+Inf
448.27	1.1205E+6	4.4958	Inf	+359.8
448.44	1.1210E+6	4.5000	Inf	-7.5
448.60	1.1215E+6	4.4944	0.0394	+2.6
448.79	1.1220E+6	4.4901	0.0398	+5.3
448.95	1.1225E+6	4.4944	0.0400	+3.6
449.13	1.1230E+6	4.4944	Inf	+349.3
449.30	1.1235E+6	4.5029	Inf	-23.1
449.47	1.1240E+6	4.4972	0.0400	+4.0
449.63	1.1245E+6	4.4944	Inf	-14.8
449.82	1.1250E+6	4.4887	Inf	+4.3
449.98	1.1255E+6	4.4930	Inf	-368.1
450.15	1.1260E+6	4.5000	Inf	+4.7
450.32	1.1265E+6	4.4972	Inf	+358.6
450.50	1.1270E+6	4.4873	0.0382	+0.4
450.68	1.1275E+6	4.4859	0.0404	-2.6
450.87	1.1280E+6	4.4915	0.0400	+5.1
451.05	1.1285E+6	4.4930	0.0386	-2.0
451.25	1.1290E+6	4.4915	Inf	+Inf
451.41	1.1295E+6	4.4887	0.0399	+6.9
451.58	1.1300E+6	4.4972	0.0388	-5.5
451.76	1.1305E+6	4.4930	Inf	-362.8
451.95	1.1310E+6	4.4930	0.0398	-8.3
452.13	1.1315E+6	4.4915	0.0395	-7.1
452.30	1.1320E+6	4.4802	0.0383	-5.3
452.50	1.1325E+6	4.4972	Inf	-3.5
452.68	1.1330E+6	4.4845	Inf	+0.0
452.86	1.1335E+6	4.4944	Inf	+345.9
453.03	1.1340E+6	4.4802	Inf	-25.1
453.19	1.1345E+6	4.4986	Inf	-364.7
453.36	1.1350E+6	4.4930	0.0390	+2.5
453.56	1.1355E+6	4.4915	Inf	-353.9
453.73	1.1360E+6	4.4873	0.0377	-0.2
453.89	1.1365E+6	4.4901	0.0390	-2.5
454.07	1.1370E+6	4.4915	0.0402	+357.5
454.26	1.1375E+6	4.4845	Inf	+4.3
454.42	1.1380E+6	4.4958	Inf	+9.2
454.59	1.1385E+6	4.4831	0.0391	-1.6
454.77	1.1390E+6	4.4930	Inf	+348.5
454.96	1.1395E+6	4.4887	0.0395	+1.4
455.14	1.1400E+6	4.4873	Inf	-13.6
455.31	1.1405E+6	4.4873	0.0387	-5.3
455.49	1.1410E+6	4.4816	Inf	-2.9
455.67	1.1415E+6	4.4944	Inf	-355.7
455.87	1.1420E+6	4.4901	Inf	+1.4
456.04	1.1425E+6	4.4887	Inf	-6.4
456.20	1.1430E+6	4.4873	Inf	-12.4
456.37	1.1435E+6	4.4915	Inf	+2.1
456.54	1.1440E+6	4.4887	Inf	-10.1
456.70	1.1445E+6	4.4930	0.0390	-7.4
456.89	1.1450E+6	4.4845	0.0360	+3.7
457.07	1.1455E+6	4.4887	Inf	+348.2
457.22	1.1460E+6	4.4930	0.0406	+361.2
457.42	1.1465E+6	4.4873	Inf	-363.1
457.57	1.1470E+6	4.4930	Inf	+Inf
457.73	1.1475E+6	4.4930	0.0413	+359.0
457.90	1.1480E+6	4.4831	Inf	-365.6
458.10	1.1485E+6	4.4972	Inf	-2.3
458.27	1.1490E+6	4.4915	0.0400	-1.2
458.43	1.1495E+6	4.4986	Inf	+354.8
458.58	1.1500E+6	4.4901	Inf	-4.6
458.73	1.1505E+6	4.4887	Inf	-5.8
458.90	1.1510E+6	4.4859	Inf	-5.0
459.05	1.1515E+6	4.4845	0.0401	+3.7
459.19	1.1520E+6	4.4873	Inf	+365.6
459.35	1.1525E+6	4.4901	0.0398	+5.2
459.51	1.1530E+6	4.4859	0.0384	+0.6
459.68	1.1535E+6	4.4831	Inf	-12.3
459.84	1.1540E+6	4.4859	Inf	+351.7
460.01	1.1545E+6	4.4901	0.0386	-5.6
460.18	1.1550E+6	4.4859	Inf	-11.2
460.33	1.1555E+6	4.4859	Inf	-359.4
460.48	1.1560E+6	4.4901	Inf	-7.3
460.62	1.1565E+6	4.4972	Inf	-16.9
460.78	1.1570E+6	4.4873	Inf	-371.0
460.94	1.1575E+6	4.4901	0.0403	-358.5
461.11	1.1580E+6	4.4831	0.0397	-1.2
461.28	1.1585E+6	4.4887	0.0386	-4.0
461.48	1.1590E+6	4.4915	Inf	+Inf
461.66	1.1595E+6	4.4930	Inf	-20.5
461.82	1.1600E+6	4.4859	Inf	-366.0
461.99	1.1605E+6	4.4845	Inf	+4.8
462.16	1.1610E+6	4.4930	0.0399	+360.2
462.34	1.1615E+6	4.4930	0.0392	+1.0
462.52	1.1620E+6	4.4915	0.0409	+363.6
462.71	1.1625E+6	4.4831	Inf	+362.5
462.89	1.1630E+6	4.4901	0.0394	-0.6
463.09	1.1635E+6	4.4873	0.0393	+361.9
463.27	1.1640E+6	4.4887	Inf	+342.6
463.44	1.1645E+6	4.4802	Inf	-360.6
463.62	1.1650E+6	4.4859	Inf	-367.6
463.80	1.1655E+6	4.4845	Inf	+346.1
463.97	1.1660E+6	4.4845	Inf	+340.6
464.14	1.1665E+6	4.4887	Inf	+Inf
464.29	1.1670E+6	4.4831	0.0406	+361.0
464.49	1.1675E+6	4.4972	Inf	+339.8
464.67	1.1680E+6	4.4958	0.0390	-12.8
464.87	1.1685E+6	4.4859	Inf	-356.2
465.04	1.1690E+6	4.4831	0.0380	-5.3
465.24	1.1695E+6	4.4859	Inf	+359.4
465.42	1.1700E+6	4.4831	0.0387	-7.6
465.60	1.1705E+6	4.4887	Inf	+349.5
465.80	1.1710E+6	4.4887	Inf	+341.4
465.96	1.1715E+6	4.4887	Inf	-356.4
466.13	1.1720E+6	4.4859	0.0389	+1.5
466.30	1.1725E+6	4.4986	0.0399	-7.2
466.48	1.1730E+6	4.4831	Inf	+364.6
466.68	1.1735E+6	4.4859	Inf	+335.5
466.86	1.1740E+6	4.4845	Inf	-369.1
467.03	1.1745E+6	4.4887	0.0382	+4.0
467.21	1.1750E+6	4.4816	Inf	-4.4
467.41	1.1755E+6	4.4887	0.0403	+365.9
467.61	1.1760E+6	4.4873	Inf	-7.6
467.78	1.1765E+6	4.4859	0.0391	-7.2
467.94	1.1770E+6	4.4845	Inf	+347.7
468.10	1.1775E+6	4.4958	0.0387	-4.7
468.30	1.1780E+6	4.4901	Inf	+360.0
468.46	1.1785E+6	4.4901	Inf	+343.4
468.61	1.1790E+6	4.4901	0.0378	+4.0
468.78	1.1795E+6	4.4901	Inf	+353.2
468.96	1.1800E+6	4.4859	Inf	-359.4
469.13	1.1805E+6	4.4788	0.0397	-358.9
469.33	1.1810E+6	4.4859	0.0388	+1.5
469.52	1.1815E+6	4.4859	Inf	+1.1
469.69	1.1820E+6	4.4859	Inf	-6.2
469.87	1.1825E+6	4.4788	Inf	+7.9
470.06	1.1830E+6	4.4831	Inf	+349.3
470.22	1.1835E+6	4.4901	Inf	+0.6
470.41	1.1840E+6	4.4915	Inf	+1.5
470.57	1.1845E+6	4.4831	Inf	-1.1
470.77	1.1850E+6	4.4859	0.0396	+362.1
470.97	1.1855E+6	4.4887	0.0384	-2.8
471.15	1.1860E+6	4.4816	0.0392	-6.2
471.36	1.1865E+6	4.4915	0.0383	-0.6
471.57	1.1870E+6	4.4845	Inf	+354.9
471.74	1.1875E+6	4.4901	Inf	-15.6
471.90	1.1880E+6	4.4816	Inf	+351.4
472.09	1.1885E+6	4.4816	Inf	+344.1
472.25	1.1890E+6	4.4774	Inf	-5.6
472.42	1.1895E+6	4.4944	0.0389	+1.5
472.58	1.1900E+6	4.4831	0.0397	-366.0
472.79	1.1905E+6	4.4972	Inf	-354.4
472.97	1.1910E+6	4.4873	0.0389	-6.0
473.13	1.1915E+6	4.4859	0.0390	+1.5
473.30	1.1920E+6	4.4802	Inf	-355.3
473.48	1.1925E+6	4.4774	Inf	-9.0
473.65	1.1930E+6	4.4816	Inf	+5.8
473.82	1.1935E+6	4.4958	Inf	-361.9
474.00	1.1940E+6	4.4732	Inf	-9.6
474.20	1.1945E+6	4.4901	Inf	+1.3
474.38	1.1950E+6	4.4915	Inf	-372.9
474.55	1.1955E+6	4.4859	0.0381	-2.2
474.71	1.1960E+6	4.4831	Inf	-9.7
474.92	1.1965E+6	4.4887	0.0384	+356.6
475.08	1.1970E+6	4.4802	0.0381	+3.4
475.26	1.1975E+6	4.4816	Inf	+357.0
475.43	1.1980E+6	4.4831	Inf	-2.8
475.60	1.1985E+6	4.4873	Inf	-355.9
475.80	1.1990E+6	4.4788	Inf	+332.8
475.98	1.1995E+6	4.4859	Inf	-355.0
476.16	1.2000E+6	4.4831	0.0386	+5.4
476.34	1.2005E+6	4.4845	Inf	-364.3
476.51	1.2010E+6	4.4873	0.0381	-2.8
476.69	1.2015E+6	4.4760	0.0389	+3.5
476.89	1.2020E+6	4.4859	Inf	+367.4
477.06	1.2025E+6	4.4873	0.0366	+1.7
477.24	1.2030E+6	4.4788	Inf	-9.3
477.43	1.2035E+6	4.4802	Inf	-3.7
477.61	1.2040E+6	4.4845	Inf	-5.0
477.79	1.2045E+6	4.4802	0.0391	+360.0
477.99	1.2050E+6	4.4901	Inf	+351.6
478.17	1.2055E+6	4.4788	Inf	-370.8
478.36	1.2060E+6	4.4802	0.0386	-1.5
478.56	1.2065E+6	4.4845	Inf	+350.0
478.74	1.2070E+6	4.4774	Inf	+359.3
478.92	1.2075E+6	4.4816	0.0385	-3.0
479.09	1.2080E+6	4.4845	Inf	+355.0
479.29	1.2085E+6	4.4746	Inf	-34.0
479.47	1.2090E+6	4.4788	Inf	+363.5
479.64	1.2095E+6	4.4774	Inf	+346.3
479.80	1.2100E+6	4.4873	0.0394	+362.6
480.00	1.2105E+6	4.4831	0.0382	+0.2
480.22	1.2110E+6	4.4859	Inf	+362.6
480.40	1.2115E+6	4.4831	Inf	+348.9
480.57	1.2120E+6	4.4845	Inf	+340.3
480.75	1.2125E+6	4.4788	Inf	-366.1
480.93	1.2130E+6	4.4802	Inf	-355.4
481.12	1.2135E+6	4.4760	0.0381	-1.1
481.28	1.2140E+6	4.4873	Inf	-7.9
481.45	1.2145E+6	4.4732	Inf	+358.2
481.63	1.2150E+6	4.4746	0.0368	-3.3
481.81	1.2155E+6	4.4915	Inf	+Inf
482.01	1.2160E+6	4.4788	Inf	-9.0
482.20	1.2165E+6	4.4845	Inf	+360.0
482.38	1.2170E+6	4.4774	0.0394	-4.4
482.58	1.2175E+6	4.4831	0.0368	-1.1
482.76	1.2180E+6	4.4915	Inf	-20.6
482.96	1.2185E+6	4.4845	Inf	+362.0
483.13	1.2190E+6	4.4831	0.0393	-6.3
483.33	1.2195E+6	4.4816	0.0387	+358.7
483.51	1.2200E+6	4.4901	Inf	+342.2
483.69	1.2205E+6	4.4774	Inf	+360.0
483.89	1.2210E+6	4.4887	Inf	-3.3
484.08	1.2215E+6	4.4732	Inf	-354.7
484.26	1.2220E+6	4.4802	Inf	+355.4
484.43	1.2225E+6	4.4788	0.0394	+6.2
484.61	1.2230E+6	4.4788	Inf	-19.1
484.77	1.2235E+6	4.4845	0.0389	-0.2
484.94	1.2240E+6	4.4703	Inf	+352.1
485.12	1.2245E+6	4.4746	Inf	-4.6
485.29	1.2250E+6	4.4859	Inf	+350.3
485.46	1.2255E+6	4.4788	Inf	-0.4
485.66	1.2260E+6	4.4859	Inf	-0.9
485.84	1.2265E+6	4.4689	Inf	+357.1
486.02	1.2270E+6	4.4845	Inf	-25.6
486.21	1.2275E+6	4.4746	0.0373	-2.4
486.41	1.2280E+6	4.4831	0.0349	-12.4
486.61	1.2285E+6	4.4859	Inf	-365.1
486.79	1.2290E+6	4.4788	Inf	+357.1
486.95	1.2295E+6	4.4788	0.0383	+4.0
487.14	1.2300E+6	4.4831	0.0375	-1.6
487.30	1.2305E+6	4.4831	Inf	+356.9
487.49	1.2310E+6	4.4774	Inf	+346.4
487.65	1.2315E+6	4.4760	Inf	+3.5
487.82	1.2320E+6	4.4845	0.0386	-7.3
488.00	1.2325E+6	4.4760	Inf	-14.9
488.19	1.2330E+6	4.4845	0.0377	-1.1
488.37	1.2335E+6	4.4831	Inf	-8.2
488.55	1.2340E+6	4.4816	Inf	+Inf
488.72	1.2345E+6	4.4845	Inf	+2.9
488.90	1.2350E+6	4.4816	Inf	-358.0
489.07	1.2355E+6	4.4859	Inf	+Inf
489.27	1.2360E+6	4.4675	Inf	+357.3
489.45	1.2365E+6	4.4760	0.0384	-2.0
489.60	1.2370E+6	4.4760	0.0387	-8.5
489.77	1.2375E+6	4.4802	0.0383	+5.3
489.93	1.2380E+6	4.4845	Inf	-21.2
490.13	1.2385E+6	4.4675	Inf	-368.2
490.31	1.2390E+6	4.4774	Inf	-12.5
490.48	1.2395E+6	4.4802	0.0388	+362.0
490.65	1.2400E+6	4.4788	0.0386	+0.7
490.81	1.2405E+6	4.4760	0.0406	+364.2
491.01	1.2410E+6	4.4774	Inf	+Inf
491.18	1.2415E+6	4.4859	Inf	+351.1
491.36	1.2420E+6	4.4802	0.0379	+4.3
491.56	1.2425E+6	4.4774	Inf	-7.4
491.73	1.2430E+6	4.4746	0.0355	-11.4
491.91	1.2435E+6	4.4788	Inf	-360.7
492.09	1.2440E+6	4.4845	Inf	-8.5
492.28	1.2445E+6	4.4746	Inf	+339.6
492.44	1.2450E+6	4.4873	0.0362	-8.3
492.63	1.2455E+6	4.4760	0.0395	-360.9
492.82	1.2460E+6	4.4802	Inf	+1.6
493.01	1.2465E+6	4.4774	0.0395	-3.8
493.17	1.2470E+6	4.4746	0.0375	-7.6
493.34	1.2475E+6	4.4845	0.0380	+1.8
493.51	1.2480E+6	4.4675	Inf	+339.3
493.67	1.2485E+6	4.4802	0.0386	-3.4
493.84	1.2490E+6	4.4732	Inf	-3.6
493.99	1.2495E+6	4.4788	0.0363	-11.9
494.16	1.2500E+6	4.4760	0.0388	-3.1
494.34	1.2505E+6	4.4788	Inf	+342.9
494.51	1.2510E+6	4.4816	0.0380	-5.4
494.67	1.2515E+6	4.4788	0.0384	-1.1
494.84	1.2520E+6	4.4802	Inf	+349.0
495.00	1.2525E+6	4.4774	Inf	+347.2
495.17	1.2530E+6	4.4802	Inf	+3.2
495.34	1.2535E+6	4.4816	0.0401	+360.9
495.54	1.2540E+6	4.4760	Inf	+Inf
495.70	1.2545E+6	4.4732	0.0374	+4.5
495.89	1.2550E+6	4.4802	0.0377	+1.6
496.07	1.2555E+6	4.4703	0.0393	-1.8
496.25	1.2560E+6	4.4831	Inf	-353.9
496.40	1.2565E+6	4.4717	0.0377	+2.0
496.58	1.2570E+6	4.4717	Inf	+Inf
496.75	1.2575E+6	4.4732	0.0391	-0.5
496.92	1.2580E+6	4.4732	Inf	-1.6
497.08	1.2585E+6	4.4802	Inf	+Inf
497.25	1.2590E+6	4.4746	Inf	-8.2
497.42	1.2595E+6	4.4717	0.0377	-0.2
497.60	1.2600E+6	4.4760	0.0406	+365.2
497.78	1.2605E+6	4.4788	Inf	+361.8
497.95	1.2610E+6	4.4774	Inf	+358.0
498.10	1.2615E+6	4.4774	Inf	-11.3
498.28	1.2620E+6	4.4831	Inf	+351.2
498.45	1.2625E+6	4.4774	Inf	+339.1
498.61	1.2630E+6	4.4802	Inf	-368.0
498.78	1.2635E+6	4.4746	Inf	-364.8
498.95	1.2640E+6	4.4760	Inf	+349.1
499.13	1.2645E+6	4.4717	Inf	+362.3
499.29	1.2650E+6	4.4732	0.0383	-7.5
499.48	1.2655E+6	4.4689	0.0366	+1.6
499.66	1.2660E+6	4.4732	0.0376	-2.1
499.84	1.2665E+6	4.4689	Inf	+353.4
500.01	1.2670E+6	4.4816	Inf	-366.4
500.19	1.2675E+6	4.4689	Inf	+347.9
500.36	1.2680E+6	4.4647	Inf	+Inf
500.52	1.2685E+6	4.4746	Inf	-3.4
500.69	1.2690E+6	4.4760	0.0384	-8.0
500.86	1.2695E+6	4.4703	0.0380	-0.5
501.04	1.2700E+6	4.4717	0.0372	+0.5
501.22	1.2705E+6	4.4675	Inf	-12.4
501.39	1.2710E+6	4.4746	Inf	-363.7
501.56	1.2715E+6	4.4746	Inf	-9.8
501.72	1.2720E+6	4.4717	Inf	+Inf
501.87	1.2725E+6	4.4788	Inf	-367.3
502.06	1.2730E+6	4.4675	Inf	+365.3
502.22	1.2735E+6	4.4760	Inf	+360.9
502.39	1.2740E+6	4.4774	Inf	+340.0
502.54	1.2745E+6	4.4732	Inf	+360.0
502.70	1.2750E+6	4.4661	0.0378	-1.8
502.90	1.2755E+6	4.4774	Inf	+336.6
503.07	1.2760E+6	4.4703	0.0385	+356.3
503.24	1.2765E+6	4.4717	Inf	+349.0
503.40	1.2770E+6	4.4732	Inf	+Inf
503.57	1.2775E+6	4.4703	Inf	-0.7
503.75	1.2780E+6	4.4788	0.0378	+4.4
503.92	1.2785E+6	4.4717	0.0397	-363.4
504.08	1.2790E+6	4.4732	Inf	+Inf
504.25	1.2795E+6	4.4618	Inf	+2.5
504.42	1.2800E+6	4.4647	0.0387	+361.8
504.60	1.2805E+6	4.4703	0.0380	-1.4
504.78	1.2810E+6	4.4717	Inf	+Inf
504.95	1.2815E+6	4.4689	Inf	+338.6
505.12	1.2820E+6	4.4717	Inf	+Inf
505.28	1.2825E+6	4.4661	0.0390	+1.2
505.45	1.2830E+6	4.4661	0.0368	+349.4
505.65	1.2835E+6	4.4647	0.0383	+4.2
505.83	1.2840E+6	4.4661	0.0377	+0.7
506.00	1.2845E+6	4.4633	Inf	+346.1
506.16	1.2850E+6	4.4760	0.0375	-8.6
506.33	1.2855E+6	4.4774	Inf	-357.0
506.50	1.2860E+6	4.4689	Inf	-363.0
506.68	1.2865E+6	4.4774	Inf	+351.4
506.83	1.2870E+6	4.4746	0.0385	-2.8
506.98	1.2875E+6	4.4675	Inf	+351.9
507.14	1.2880E+6	4.4760	Inf	-373.5
507.31	1.2885E+6	4.4675	Inf	-359.8
507.50	1.2890E+6	4.4675	Inf	+325.1
507.66	1.2895E+6	4.4760	0.0392	+364.2
507.83	1.2900E+6	4.4661	Inf	+358.8
507.99	1.2905E+6	4.4746	Inf	+Inf
508.16	1.2910E+6	4.4732	0.0375	+3.7
508.34	1.2915E+6	4.4717	Inf	-364.4
508.51	1.2920E+6	4.4717	Inf	+344.4
508.68	1.2925E+6	4.4633	Inf	+363.3
508.84	1.2930E+6	4.4774	0.0379	-9.1
509.02	1.2935E+6	4.4746	0.0395	+0.7
509.21	1.2940E+6	4.4647	Inf	-369.5
509.37	1.2945E+6	4.4689	Inf	-10.0
509.54	1.2950E+6	4.4675	Inf	-359.1
509.70	1.2955E+6	4.4647	Inf	+Inf
509.86	1.2960E+6	4.4647	Inf	+1.4
510.00	1.2965E+6	4.4661	0.0384	+0.5
510.17	1.2970E+6	4.4689	Inf	-1.6
510.34	1.2975E+6	4.4689	Inf	-1.9
510.50	1.2980E+6	4.4661	0.0373	-2.3
510.69	1.2985E+6	4.4618	Inf	+0.7
510.86	1.2990E+6	4.4689	Inf	+362.8
511.02	1.2995E+6	4.4717	0.0379	-11.7
511.20	1.3000E+6	4.4703	Inf	+349.7
511.38	1.3005E+6	4.4717	Inf	-362.8
511.55	1.3010E+6	4.4647	Inf	-358.4
511.72	1.3015E+6	4.4633	Inf	-1.6
511.88	1.3020E+6	4.4647	Inf	-367.5
512.05	1.3025E+6	4.4661	0.0365	-9.6
512.25	1.3030E+6	4.4576	Inf	+Inf
512.42	1.3035E+6	4.4717	0.0379	-8.9
512.60	1.3040E+6	4.4717	0.0384	+1.4
512.77	1.3045E+6	4.4717	0.0371	+1.9
512.93	1.3050E+6	4.4732	Inf	+365.4
513.10	1.3055E+6	4.4703	Inf	+347.5
513.26	1.3060E+6	4.4604	Inf	+354.1
513.43	1.3065E+6	4.4590	0.0392	+362.4
513.61	1.3070E+6	4.4703	Inf	+0.5
513.78	1.3075E+6	4.4661	0.0385	-3.1
513.95	1.3080E+6	4.4675	Inf	+349.6
514.11	1.3085E+6	4.4703	0.0373	-6.8
514.31	1.3090E+6	4.4675	Inf	-2.4
514.48	1.3095E+6	4.4746	0.0375	+2.8
514.64	1.3100E+6	4.4703	Inf	+359.3
514.81	1.3105E+6	4.4647	0.0373	+2.8
515.00	1.3110E+6	4.4675	0.0386	+363.8
515.19	1.3115E+6	4.4604	Inf	+341.4
515.36	1.3120E+6	4.4618	0.0377	-11.1
515.53	1.3125E+6	4.4661	0.0353	+0.5
515.69	1.3130E+6	4.4647	Inf	-0.9
515.86	1.3135E+6	4.4746	Inf	+364.7
516.01	1.3140E+6	4.4661	Inf	-363.3
516.19	1.3145E+6	4.4675	Inf	-369.2
516.36	1.3150E+6	4.4774	Inf	+344.4
516.52	1.3155E+6	4.4647	0.0352	+6.2
516.69	1.3160E+6	4.4732	Inf	+Inf
516.84	1.3165E+6	4.4618	Inf	+Inf
516.99	1.3170E+6	4.4661	Inf	-1.4
517.16	1.3175E+6	4.4647	0.0378	+0.0
517.34	1.3180E+6	4.4661	0.0373	-2.6
517.52	1.3185E+6	4.4689	0.0379	-10.0
517.71	1.3190E+6	4.4590	Inf	-355.3
517.87	1.3195E+6	4.4661	Inf	+0.2
518.04	1.3200E+6	4.4618	Inf	+343.4
518.22	1.3205E+6	4.4675	Inf	+351.0
518.39	1.3210E+6	4.4633	0.0373	+2.4
518.55	1.3215E+6	4.4661	Inf	-361.0
518.72	1.3220E+6	4.4689	0.0382	-4.5
518.90	1.3225E+6	4.4689	Inf	+4.8
519.07	1.3230E+6	4.4661	0.0376	-2.6
519.24	1.3235E+6	4.4618	0.0384	+2.4
519.40	1.3240E+6	4.4647	Inf	-362.6
519.57	1.3245E+6	4.4576	0.0373	+1.9
519.74	1.3250E+6	4.4618	0.0371	-3.6
519.90	1.3255E+6	4.4576	Inf	+341.3
520.08	1.3260E+6	4.4618	Inf	+Inf
520.25	1.3265E+6	4.4760	0.0380	-6.9
520.43	1.3270E+6	4.4661	0.0374	-6.2
520.62	1.3275E+6	4.4717	Inf	+354.5
520.78	1.3280E+6	4.4534	Inf	+357.9
520.97	1.3285E+6	4.4661	0.0372	-2.6
521.16	1.3290E+6	4.4618	Inf	-6.5
521.33	1.3295E+6	4.4548	Inf	-6.0
521.51	1.3300E+6	4.4661	Inf	+357.1
521.70	1.3305E+6	4.4618	Inf	-361.7
521.87	1.3310E+6	4.4675	0.0384	-1.4
522.05	1.3315E+6	4.4661	0.0366	-8.4
522.25	1.3320E+6	4.4647	0.0390	-4.3
522.43	1.3325E+6	4.4604	Inf	+Inf
522.58	1.3330E+6	4.4675	Inf	+358.8
522.75	1.3335E+6	4.4675	Inf	-7.0
522.91	1.3340E+6	4.4590	Inf	+Inf
523.08	1.3345E+6	4.4661	Inf	-4.8
523.26	1.3350E+6	4.4590	0.0382	-0.7
523.43	1.3355E+6	4.4548	Inf	+356.6
523.61	1.3360E+6	4.4661	0.0377	-3.9
523.77	1.3365E+6	4.4590	0.0369	-6.2
523.94	1.3370E+6	4.4604	Inf	+362.2
524.11	1.3375E+6	4.4618	Inf	-15.4
524.29	1.3380E+6	4.4647	Inf	+4.3
524.46	1.3385E+6	4.4590	Inf	-359.0
524.61	1.3390E+6	4.4534	Inf	+351.1
524.79	1.3395E+6	4.4647	Inf	+Inf
524.97	1.3400E+6	4.4689	Inf	+357.1
525.14	1.3405E+6	4.4633	Inf	+353.0
525.32	1.3410E+6	4.4675	Inf	+2.2
525.49	1.3415E+6	4.4647	Inf	-368.4
525.64	1.3420E+6	4.4604	Inf	+355.7
525.79	1.3425E+6	4.4647	Inf	-361.7
525.96	1.3430E+6	4.4604	Inf	+363.9
526.12	1.3435E+6	4.4548	Inf	-364.1
526.32	1.3440E+6	4.4661	Inf	-12.6
526.50	1.3445E+6	4.4604	0.0361	-1.5
526.67	1.3450E+6	4.4576	0.0375	-7.0
526.85	1.3455E+6	4.4647	Inf	+344.7
527.02	1.3460E+6	4.4604	Inf	-370.2
527.17	1.3465E+6	4.4604	0.0367	+2.2
527.37	1.3470E+6	4.4618	Inf	+Inf
527.53	1.3475E+6	4.4576	Inf	+Inf
527.70	1.3480E+6	4.4618	0.0371	+354.9
527.87	1.3485E+6	4.4534	Inf	-6.3
528.05	1.3490E+6	4.4590	Inf	+355.1
528.23	1.3495E+6	4.4647	Inf	+348.3
528.40	1.3500E+6	4.4534	0.0376	-7.3
528.58	1.3505E+6	4.4590	Inf	+347.9
528.77	1.3510E+6	4.4576	Inf	+362.9
528.93	1.3515E+6	4.4604	Inf	+4.1
529.10	1.3520E+6	4.4633	Inf	+Inf
529.26	1.3525E+6	4.4590	0.0376	-1.2
529.45	1.3530E+6	4.4633	0.0377	-5.6
529.60	1.3535E+6	4.4590	Inf	-6.8
529.76	1.3540E+6	4.4633	0.0383	-0.2
529.93	1.3545E+6	4.4562	Inf	-8.5
530.10	1.3550E+6	4.4519	Inf	+1.2
530.28	1.3555E+6	4.4618	0.0373	+356.6
530.50	1.3560E+6	4.4604	Inf	+352.4
530.66	1.3565E+6	4.4505	Inf	+337.8
530.84	1.3570E+6	4.4647	0.0367	-6.8
531.03	1.3575E+6	4.4647	Inf	+3.2
531.20	1.3580E+6	4.4633	Inf	-7.8
531.36	1.3585E+6	4.4604	0.0354	+1.0
531.56	1.3590E+6	4.4689	0.0366	+2.2
531.74	1.3595E+6	4.4604	Inf	-358.8
531.91	1.3600E+6	4.4562	0.0358	-3.9
532.08	1.3605E+6	4.4491	Inf	+Inf
532.26	1.3610E+6	4.4604	Inf	+Inf
532.44	1.3615E+6	4.4576	0.0367	+359.5
532.62	1.3620E+6	4.4548	Inf	-10.1
532.82	1.3625E+6	4.4590	0.0371	+2.9
532.99	1.3630E+6	4.4576	0.0382	+363.4
533.16	1.3635E+6	4.4633	Inf	-12.0
533.32	1.3640E+6	4.4590	Inf	-365.9
533.49	1.3645E+6	4.4505	Inf	+333.0
533.66	1.3650E+6	4.4590	Inf	-9.1
533.86	1.3655E+6	4.4576	0.0372	-1.2
534.04	1.3660E+6	4.4519	Inf	-10.5
534.20	1.3665E+6	4.4590	Inf	-360.7
534.39	1.3670E+6	4.4590	Inf	-0.2
534.55	1.3675E+6	4.4590	Inf	+Inf
534.72	1.3680E+6	4.4505	0.0375	-1.0
534.94	1.3685E+6	4.4519	Inf	+2.2
535.10	1.3690E+6	4.4633	Inf	-4.9
535.28	1.3695E+6	4.4491	Inf	-1.7
535.47	1.3700E+6	4.4548	0.0377	-1.0
535.63	1.3705E+6	4.4633	Inf	+Inf
535.82	1.3710E+6	4.4604	Inf	+346.2
535.98	1.3715E+6	4.4548	0.0366	+3.5
536.18	1.3720E+6	4.4661	Inf	-369.4
536.37	1.3725E+6	4.4590	Inf	+349.6
536.53	1.3730E+6	4.4562	Inf	-9.1
536.70	1.3735E+6	4.4534	Inf	+357.5
536.88	1.3740E+6	4.4576	0.0364	-6.7
537.07	1.3745E+6	4.4562	0.0362	-6.2
537.25	1.3750E+6	4.4519	Inf	-16.1
537.43	1.3755E+6	4.4590	0.0372	-2.7
537.60	1.3760E+6	4.4491	0.0380	-3.5
537.80	1.3765E+6	4.4590	Inf	+358.5
537.98	1.3770E+6	4.4562	Inf	-18.3
538.14	1.3775E+6	4.4491	0.0379	-6.5
538.35	1.3780E+6	4.4534	0.0370	-8.2
538.53	1.3785E+6	4.4491	0.0368	-2.2
538.68	1.3790E+6	4.4661	Inf	-9.7
538.86	1.3795E+6	4.4519	Inf	-3.0
539.04	1.3800E+6	4.4576	0.0366	-7.4
539.21	1.3805E+6	4.4548	0.0383	+363.5
539.43	1.3810E+6	4.4647	Inf	-355.8
539.61	1.3815E+6	4.4519	Inf	+341.4
539.79	1.3820E+6	4.4519	0.0368	+4.0
539.97	1.3825E+6	4.4519	Inf	+360.2
540.14	1.3830E+6	4.4548	Inf	-6.7
540.29	1.3835E+6	4.4633	0.0382	-1.0
540.49	1.3840E+6	4.4519	0.0342	-8.0
540.71	1.3845E+6	4.4519	Inf	-14.5
540.87	1.3850E+6	4.4562	Inf	+Inf
541.06	1.3855E+6	4.4576	0.0366	-1.2
541.22	1.3860E+6	4.4449	Inf	-15.7
541.40	1.3865E+6	4.4505	0.0376	+1.7
541.59	1.3870E+6	4.4576	0.0366	-7.5
541.80	1.3875E+6	4.4505	Inf	-357.2
541.99	1.3880E+6	4.4534	Inf	+350.8
542.15	1.3885E+6	4.4562	0.0360	-7.0
542.34	1.3890E+6	4.4562	Inf	+364.3
542.50	1.3895E+6	4.4505	0.0378	-5.0
542.70	1.3900E+6	4.4505	0.0369	+0.5
542.90	1.3905E+6	4.4491	0.0379	-12.3
543.09	1.3910E+6	4.4534	Inf	+361.8
543.25	1.3915E+6	4.4576	Inf	+0.3
543.42	1.3920E+6	4.4519	Inf	-374.0
543.58	1.3925E+6	4.4576	Inf	+359.5
543.75	1.3930E+6	4.4519	Inf	+0.3
543.93	1.3935E+6	4.4505	0.0353	-8.3
544.13	1.3940E+6	4.4505	Inf	-7.0
544.30	1.3945E+6	4.4647	0.0366	-2.8
544.50	1.3950E+6	4.4477	0.0367	-2.0
544.68	1.3955E+6	4.4562	Inf	-1.8
544.85	1.3960E+6	4.4491	Inf	+353.2
545.03	1.3965E+6	4.4562	Inf	+356.0
545.23	1.3970E+6	4.4534	Inf	-368.0
545.41	1.3975E+6	4.4548	0.0364	-1.8
545.58	1.3980E+6	4.4505	0.0370	+0.0
545.75	1.3985E+6	4.4449	0.0368	+5.3
545.91	1.3990E+6	4.4576	0.0376	-3.5
546.11	1.3995E+6	4.4548	0.0363	-6.5
546.31	1.4000E+6	4.4576	Inf	+337.0
546.51	1.4005E+6	4.4505	Inf	+Inf
546.68	1.4010E+6	4.4519	0.0361	-4.0
546.84	1.4015E+6	4.4647	0.0352	-5.0
547.04	1.4020E+6	4.4548	Inf	-360.3
547.23	1.4025E+6	4.4548	Inf	-1.0
547.39	1.4030E+6	4.4477	0.0356	+0.3
547.56	1.4035E+6	4.4576	Inf	+358.7
547.74	1.4040E+6	4.4463	0.0362	+2.8
547.94	1.4045E+6	4.4604	Inf	+Inf
548.12	1.4050E+6	4.4477	Inf	+330.4
548.31	1.4055E+6	4.4449	Inf	+359.5
548.47	1.4060E+6	4.4491	0.0361	-2.0
548.64	1.4065E+6	4.4505	0.0366	+5.1
548.82	1.4070E+6	4.4604	0.0366	-9.9
549.00	1.4075E+6	4.4463	Inf	-4.3
549.17	1.4080E+6	4.4505	Inf	+337.5
549.34	1.4085E+6	4.4449	Inf	-7.1
549.49	1.4090E+6	4.4548	Inf	-365.8
549.64	1.4095E+6	4.4562	Inf	-13.2
549.80	1.4100E+6	4.4435	Inf	-9.1
550.00	1.4105E+6	4.4449	Inf	-360.5
550.17	1.4110E+6	4.4618	Inf	-11.2
550.35	1.4115E+6	4.4406	0.0372	+0.0
550.52	1.4120E+6	4.4534	0.0359	+354.1
550.70	1.4125E+6	4.4576	Inf	-367.6
550.88	1.4130E+6	4.4420	Inf	-14.0
551.07	1.4135E+6	4.4647	0.0373	+4.8
551.27	1.4140E+6	4.4406	Inf	+346.2
551.45	1.4145E+6	4.4449	Inf	-367.6
551.60	1.4150E+6	4.4477	0.0379	+0.0
551.78	1.4155E+6	4.4505	Inf	+360.0
551.93	1.4160E+6	4.4519	0.0368	-2.3
552.12	1.4165E+6	4.4505	Inf	-25.5
552.30	1.4170E+6	4.4449	0.0353	+2.8
552.48	1.4175E+6	4.4576	0.0363	-1.5
552.68	1.4180E+6	4.4449	0.0376	-4.6
552.88	1.4185E+6	4.4491	0.0370	-10.2
553.06	1.4190E+6	4.4519	Inf	-2.3
553.23	1.4195E+6	4.4449	Inf	-355.9
553.40	1.4200E+6	4.4477	Inf	-44.3
553.58	1.4205E+6	4.4364	Inf	-3.1
553.74	1.4210E+6	4.4420	Inf	+327.8
553.91	1.4215E+6	4.4505	Inf	+Inf
554.08	1.4220E+6	4.4491	0.0349	+355.9
554.24	1.4225E+6	4.4519	0.0352	+4.1
554.38	1.4230E+6	4.4548	0.0352	-3.1
554.54	1.4235E+6	4.4449	Inf	+354.9
554.69	1.4240E+6	4.4548	Inf	-8.0
554.84	1.4245E+6	4.4477	0.0346	-9.7
555.01	1.4250E+6	4.4548	0.0355	-2.8
555.17	1.4255E+6	4.4534	Inf	+Inf
555.33	1.4260E+6	4.4576	Inf	-18.7
555.49	1.4265E+6	4.4491	Inf	+351.8
555.67	1.4270E+6	4.4505	Inf	-360.5
555.82	1.4275E+6	4.4477	Inf	-30.6
555.97	1.4280E+6	4.4548	Inf	-370.0
556.12	1.4285E+6	4.4463	Inf	+345.9
556.27	1.4290E+6	4.4420	Inf	-373.4
556.42	1.4295E+6	4.4449	Inf	+355.1
556.55	1.4300E+6	4.4392	Inf	-18.8
556.72	1.4305E+6	4.4519	0.0361	-3.3
556.89	1.4310E+6	4.4534	0.0373	-5.9
557.02	1.4315E+6	4.4435	Inf	-10.8
557.17	1.4320E+6	4.4420	Inf	+Inf
557.32	1.4325E+6	4.4562	0.0369	+357.4
557.49	1.4330E+6	4.4378	Inf	-16.5
