
Integration time [ms]: 4000,000
Averaging Nr. [scans]: 10
Smoothing Nr. [pixels]: 0
Data measured with spectrometer [name]: 1803151U1
Wave   ;Sample   ;Dark     ;Reference;Transmittance
[nm]   ;[counts] ;[counts] ;[counts] ;[%]

 195,95; 2435,599; 2450,809; 2514,086;-24,03563
 196,55; 2190,010; 2155,473; 2207,978;65,77869
 197,15; 1787,257; 1825,653; 1797,723; 0,00000
 197,76; 3231,296; 3364,879; 3360,889; 0,00000
 198,36; 1888,755; 1886,433; 1945,838; 3,90880
 198,96; 2887,760; 3138,853; 3019,463; 0,00000
 199,56; 2232,815; 2475,112; 2368,487; 0,00000
 200,16; 1889,377; 1934,011; 1881,020; 0,00000
 200,76; 1544,397; 1629,734; 1574,046; 0,00000
 201,36; 3450,583; 3644,140; 3521,958; 0,00000
 201,96; 1580,525; 1650,171; 1633,621; 0,00000
 202,56; 2293,387; 2318,435; 2251,883; 0,00000
 203,16; 2461,181; 2564,795; 2494,373; 0,00000
 203,76; 1902,442; 1954,839; 1908,750; 0,00000
 204,36; 1561,574; 1733,936; 1529,979; 0,00000
 204,96; 2302,096; 2295,244; 2327,618;21,16559
 205,56; 1972,245; 2137,645; 2037,247; 0,00000
 206,16; 1606,371; 1616,372; 1511,511; 0,00000
 206,76; 1940,204; 2009,469; 1932,740; 0,00000
 207,36; 2774,439; 2789,130; 2790,438;-1123,24062
 207,96; 2731,243; 2751,425; 2693,363; 0,00000
 208,56; 2315,956; 2467,923; 2308,266; 0,00000
 209,16; 1889,142; 1894,205; 1953,478;-8,54108
 209,76; 1461,594; 1638,169; 1583,577; 0,00000
 210,36; 1713,530; 1838,196; 1811,003; 0,00000
 210,96; 1996,710; 2184,963; 2096,406; 0,00000
 211,56; 1999,497; 2134,099; 2082,774; 0,00000
 212,16; 4349,694; 4485,535; 4481,305; 0,00000
 212,76; 1785,845; 1873,645; 1827,247; 0,00000
 213,36; 2633,091; 2567,094; 2680,536;58,17689
 213,96; 2269,697; 2310,099; 2403,774;-43,12953
 214,56; 2036,564; 2149,512; 2055,117; 0,00000
 215,16; 1957,504; 2038,469; 2012,740; 0,00000
 215,76; 3907,942; 3965,839; 4066,750;-57,37508
 216,36; 1467,554; 1475,213; 1579,954;-7,31265
 216,96; 3287,209; 3374,743; 3320,521; 0,00000
 217,56; 1802,832; 1758,271; 1805,044;95,27204
 218,16; 2339,789; 2388,655; 2447,767;-82,66598
 218,75; 1547,058; 1641,143; 1726,151;-110,67845
 219,35; 1730,823; 1853,337; 1773,609; 0,00000
 219,95; 2339,712; 2485,548; 2410,018; 0,00000
 220,55; 2083,959; 2095,363; 2152,035;-20,12286
 221,15; 2998,949; 3060,429; 3111,601;-120,14370
 221,75; 1900,963; 1926,658; 1953,960;-94,11081
 222,35; 2241,765; 2344,002; 2272,545; 0,00000
 222,95; 3269,881; 3234,306; 3297,945;55,90061
 223,55; 3013,103; 3109,103; 3183,011;-129,89086
 224,15; 2544,048; 2604,574; 2468,444; 0,00000
 224,75; 2236,178; 2379,596; 2266,633; 0,00000
 225,35; 1933,752; 2104,504; 1976,641; 0,00000
 225,95; 2698,890; 2835,240; 2776,380; 0,00000
 226,55; 1872,211; 1858,328; 1869,134;128,47396
 227,15; 1848,878; 1872,231; 1939,905;-34,50797
 227,75; 3024,481; 3047,306; 2994,945; 0,00000
 228,34; 2045,969; 2090,662; 2093,198;-1762,25934
 228,94; 2516,794; 2687,169; 2521,577; 0,00000
 229,54; 1809,493; 1972,804; 1855,849; 0,00000
 230,14; 2215,937; 2290,055; 2239,397; 0,00000
 230,74; 1803,526; 1934,901; 1915,078; 0,00000
 231,34; 1888,892; 1948,949; 1956,692;-775,62548
 231,94; 2342,436; 2452,835; 2476,512;-466,26316
 232,54; 1778,428; 1919,976; 1871,119; 0,00000
 233,14; 2346,708; 2430,888; 2317,365; 0,00000
 233,74; 1864,421; 1892,751; 1849,996; 0,00000
 234,33; 1827,437; 1926,055; 1981,397;-178,19711
 234,93; 1860,316; 1868,477; 1937,215;-11,87373
 235,53; 1894,676; 2020,156; 1837,864; 0,00000
 236,13; 2205,071; 2281,007; 2160,782; 0,00000
 236,73; 2208,213; 2435,672; 2176,718; 0,00000
 237,33; 2200,223; 2203,702; 2242,337;-9,00336
 237,93; 3327,827; 3450,121; 3552,962;-118,91444
 238,53; 1877,395; 1998,389; 1962,461; 0,00000
 239,12; 3715,929; 3828,341; 3761,847; 0,00000
 239,72; 3007,232; 3117,905; 3127,315;-1176,10264
 240,32; 1313,427; 1490,391; 1230,506; 0,00000
 240,92; 1386,446; 1423,134; 1487,675;-56,84519
 241,52; 1765,071; 1843,007; 1747,782; 0,00000
 242,12; 2628,969; 2652,297; 2634,470; 0,00000
 242,72; 1693,136; 1765,200; 1704,241; 0,00000
 243,31; 1766,667; 1895,077; 1920,585;-503,39912
 243,91; 2219,458; 2311,143; 2297,151; 0,00000
 244,51; 1419,844; 1510,914; 1447,791; 0,00000
 245,11; 4178,843; 4236,060; 4215,635; 0,00000
 245,71; 2708,762; 2968,292; 2825,232; 0,00000
 246,31; 3209,010; 3308,963; 3255,406; 0,00000
 246,90; 3549,544; 3674,914; 3758,791;-149,46880
 247,50; 1683,726; 1868,901; 1654,078; 0,00000
 248,10; 2132,766; 2191,857; 2205,701;-426,83538
 248,70; 1261,201; 1414,394; 1428,699;-1070,88037
 249,30; 2123,255; 2135,703; 2095,382; 0,00000
 249,90; 1706,126; 1802,536; 1679,350; 0,00000
 250,49; 1919,525; 2119,681; 1983,193; 0,00000
 251,09; 1801,631; 1940,051; 1870,159; 0,00000
 251,69; 2337,025; 2313,046; 2316,922;618,72874
 252,29; 2201,583; 2316,015; 2151,258; 0,00000
 252,89; 2070,553; 2214,483; 2059,497; 0,00000
 253,48; 1982,444; 2109,914; 1942,791; 0,00000
 254,08; 1299,794; 1368,169; 1331,577; 0,00000
 254,68; 1236,308; 1305,888; 1212,365; 0,00000
 255,28; 2031,605; 2163,813; 2094,324; 0,00000
 255,88; 1992,794; 2197,169; 2013,577; 0,00000
 256,47; 1329,427; 1415,121; 1240,962; 0,00000
 257,07; 1943,809; 2012,108; 2048,249;-188,97528
 257,67; 2465,169; 2521,662; 2492,198; 0,00000
 258,27; 2088,990; 2251,875; 2206,652; 0,00000
 258,86; 2593,425; 2728,411; 2647,650; 0,00000
 259,46; 1774,353; 1788,483; 1800,497;-117,60480
 260,06; 1905,819; 1959,677; 1936,956; 0,00000
 260,66; 1966,978; 2085,500; 1972,448; 0,00000
 261,26; 3151,022; 3229,971; 3235,881;-1335,98430
 261,85; 1244,658; 1317,633; 1345,579;-261,12434
 262,45; 2039,753; 2017,993; 2117,069;21,96222
 263,05; 1907,565; 1952,002; 1948,545; 0,00000
 263,65; 1196,159; 1344,487; 1290,735; 0,00000
 264,24; 2795,243; 2755,425; 2960,363;19,42966
 264,84; 2288,298; 2360,954; 2280,930; 0,00000
 265,44; 2513,542; 2522,839; 2462,750; 0,00000
 266,04; 1576,153; 1819,483; 1641,497; 0,00000
 266,63; 1778,824; 1752,191; 1786,765;77,03033
 267,23; 1165,065; 1286,492; 1169,973; 0,00000
 267,83; 1948,576; 1934,156; 2012,864;18,32037
 268,42; 1538,289; 1653,020; 1591,495; 0,00000
 269,02; 2869,223; 3109,461; 2986,309; 0,00000
 269,62; 2017,285; 2074,090; 1950,298; 0,00000
 270,22; 1089,324; 1262,826; 1138,037; 0,00000
 270,81; 1979,748; 2007,209; 2100,716;-29,36776
 271,41; 1932,458; 2063,267; 1942,850; 0,00000
 272,01; 1956,941; 2070,985; 2053,594; 0,00000
 272,61; 1937,436; 2087,200; 1976,241; 0,00000
 273,20; 2424,148; 2558,333; 2526,416; 0,00000
 273,80; 1558,427; 1712,756; 1522,234; 0,00000
 274,40; 1344,791; 1431,729; 1405,808; 0,00000
 274,99; 1878,935; 2092,470; 2081,784; 0,00000
 275,59; 2241,745; 2390,769; 2270,947; 0,00000
 276,19; 2619,286; 2680,580; 2665,727; 0,00000
 276,78; 1974,318; 1944,187; 2020,528;39,46893
 277,38; 1532,160; 1662,218; 1613,192; 0,00000
 277,98; 1699,810; 1789,597; 1688,677; 0,00000
 278,57; 1538,736; 1613,200; 1543,241; 0,00000
 279,17; 1833,988; 1920,165; 1938,339;-474,17050
 279,77; 4116,764; 4306,147; 4342,389;-522,56474
 280,37; 1754,364; 1806,272; 1816,088;-528,78532
 280,96; 1484,558; 1596,633; 1512,579; 0,00000
 281,56; 1162,000; 1301,809; 1205,086; 0,00000
 282,16; 1452,998; 1593,589; 1473,202; 0,00000
 282,75; 1333,912; 1351,548; 1430,018;-22,47418
 283,35; 1746,699; 1724,443; 1718,358; 0,00000
 283,95; 1713,608; 1837,523; 1837,636; 0,00000
 284,54; 1567,802; 1732,518; 1804,399;-229,15295
 285,14; 1890,120; 2002,531; 1979,112; 0,00000
 285,73; 2176,454; 2242,848; 2297,226;-122,09940
 286,33; 1461,646; 1551,624; 1521,103; 0,00000
 286,93; 1517,320; 1624,531; 1599,112; 0,00000
 287,52; 2018,873; 2087,351; 2025,367; 0,00000
 288,12; 2253,988; 2368,289; 2323,039; 0,00000
 288,72; 2404,604; 2540,228; 2555,711;-875,93188
 289,31; 2228,632; 2305,540; 2156,587; 0,00000
 289,91; 2969,027; 2981,756; 2872,234; 0,00000
 290,51; 1827,626; 1677,901; 1918,078;62,33946
 291,10; 2220,186; 2291,945; 2340,455;-147,92648
 291,70; 1434,547; 1561,113; 1503,531; 0,00000
 292,29; 2069,355; 2157,068; 2029,110; 0,00000
 292,89; 1639,408; 1690,888; 1683,365; 0,00000
 293,49; 2103,098; 2264,589; 2068,202; 0,00000
 294,08; 1098,274; 1265,571; 1137,251; 0,00000
 294,68; 1394,679; 1502,721; 1521,333;-580,49702
 295,28; 1843,045; 1825,769; 1832,947;240,67580
 295,87; 1696,719; 1701,042; 1659,684; 0,00000
 296,47; 1797,063; 1923,782; 1882,660; 0,00000
 297,06; 2072,139; 2198,765; 2112,709; 0,00000
 297,66; 1157,451; 1120,408; 1287,457;22,17485
 298,26;  885,796; 1080,514;  935,161; 0,00000
 298,85; 2001,869; 2209,787; 2051,898; 0,00000
 299,45; 1639,367; 1706,077; 1698,585; 0,00000
 300,04; 1647,910; 1700,963; 1647,406; 0,00000
 300,64; 1714,359; 1752,363; 1876,035;-30,72951
 301,23; 2035,999; 2053,443; 2027,358; 0,00000
 301,83; 1792,192; 1890,949; 1841,692; 0,00000
 302,43; 1852,614; 2008,527; 1866,874; 0,00000
 303,02; 1451,301; 1560,394; 1634,699;-146,81679
 303,62; 1629,004; 1619,958; 1653,168;27,23981
 304,21; 2255,542; 2301,570; 2346,207;-103,11541
 304,81; 2392,431; 2363,051; 2414,159;57,48611
 305,40; 1760,153; 1808,359; 1850,798;-113,58766
 306,00; 1719,655; 1819,703; 1767,382; 0,00000
 306,59; 1930,227; 1944,121; 1926,962; 0,00000
 307,19; 1239,075; 1283,791; 1297,136;-335,08448
 307,79; 1682,635; 1758,980; 1799,356;-189,08695
 308,38; 1789,196; 1837,120; 1850,918;-347,31986
 308,98; 1236,437; 1304,055; 1275,397; 0,00000
 309,57; 1247,027; 1271,391; 1210,506; 0,00000
 310,17; 1960,665; 2107,521; 2071,488; 0,00000
 310,76; 2310,556; 2428,076; 2445,481;-675,21672
 311,36; 1643,401; 1768,788; 1824,942;-223,28865
 311,95; 1284,361; 1378,073; 1343,348; 0,00000
 312,55; 3024,203; 3226,863; 3070,983; 0,00000
 313,14; 1010,839;  938,399; 1064,981;57,22741
 313,74; 1173,903; 1252,738; 1196,283; 0,00000
 314,33; 1935,191; 2063,094; 2075,536;-1028,02437
 314,93; 2122,156; 2188,923; 2156,266; 0,00000
 315,52; 1967,585; 2025,725; 2042,570;-345,14261
 316,12; 1652,959; 1656,998; 1657,307; 0,00000
 316,71; 5234,792; 5239,584; 5407,964;-2,84593
 317,31;  862,243;  942,694;  825,906; 0,00000
 317,90; 1386,847; 1427,479; 1395,260; 0,00000
 318,50; 1204,603; 1262,738; 1199,283; 0,00000
 319,09; 1028,125; 1098,046; 1119,922;-319,63237
 319,69; 1693,000; 1815,663; 1664,243; 0,00000
 320,28; 1732,884; 1666,870; 1715,414;135,98779
 320,88; 1478,030; 1544,196; 1649,003;-63,13103
 321,47; 1124,003; 1254,738; 1125,283; 0,00000
 322,07; 1273,052; 1298,628; 1313,341;-173,83264
 322,66; 1280,002; 1255,883; 1228,127; 0,00000
 323,26; 1273,029; 1225,341; 1272,847;100,38313
 323,85; 1626,743; 1723,694; 1661,906; 0,00000
 324,45;  802,499;  844,809;  938,086;-45,35823
 325,04; 1172,226; 1270,901; 1230,078; 0,00000
 325,64; 1613,616; 1663,602; 1588,915; 0,00000
 326,23; 1335,839; 1505,765; 1385,709; 0,00000
 326,83; 1911,486; 1999,945; 2009,455;-930,18715
 327,42; 1582,396; 1619,514; 1741,161;-30,51293
 328,01; 1522,936; 1636,835; 1567,512; 0,00000
 328,61;  778,402;  731,518;  780,399;95,91414
 329,20; 2057,035; 2068,980; 2097,356;-42,09743
 329,80;  839,607;  938,398;  824,937; 0,00000
 330,39; 1509,939; 1549,765; 1513,709; 0,00000
 330,99; 1094,669; 1189,787; 1171,898; 0,00000
 331,58; 1183,887; 1231,800; 1275,611;-109,36108
 332,17; 1854,402; 1989,883; 1884,127; 0,00000
 332,77; 2551,083; 2623,015; 2525,258; 0,00000
 333,36; 1339,864; 1551,147; 1318,388; 0,00000
 333,96;  752,037;  796,690;  797,669; 0,00000
 334,55; 1004,554; 1092,213; 1083,954; 0,00000
 335,15; 1088,484; 1146,870; 1191,414;-131,07593
 335,74; 1235,589; 1335,020; 1250,495; 0,00000
 336,33; 1142,687; 1220,800; 1133,611; 0,00000
 336,93; 1391,068; 1423,932; 1418,742; 0,00000
 337,52; 1464,299; 1653,809; 1541,086; 0,00000
 338,12; 1473,286; 1596,945; 1533,455; 0,00000
 338,71; 1416,760; 1446,853; 1561,463;-26,25651
 339,30; 2087,117; 2095,822; 2173,799;-11,16263
 339,90; 1293,074; 1379,206; 1331,523; 0,00000
 340,49; 1357,962; 1502,927; 1376,504; 0,00000
 341,08; 1458,332; 1547,540; 1362,587; 0,00000
 341,68; 1348,987; 1474,800; 1268,611; 0,00000
 342,27; 1878,002; 2069,883; 1870,127; 0,00000
 342,87; 1530,092; 1603,584; 1563,964; 0,00000
 343,46; 2034,236; 2121,200; 2076,241; 0,00000
 344,05; 1655,781; 1779,795; 1737,373; 0,00000
 344,65; 1956,336; 2005,200; 2031,241;-187,64696
 345,24; 1870,809; 1951,108; 1983,249;-249,82814
 345,83; 2136,584; 2162,235; 2263,142;-25,42056
 346,43; 1097,908; 1111,888; 1119,365;-186,97327
 347,02;  914,796;  944,244;  910,618; 0,00000
 347,61; 1010,473; 1147,351;  934,367; 0,00000
 348,21; 2115,189; 2163,020; 2206,495;-110,01819
 348,80;  725,660;  808,853;  826,463;-472,39875
 349,40; 1011,926; 1161,901; 1076,078; 0,00000
 349,99; 1122,088; 1188,165; 1230,339;-156,67628
 350,58; 1436,867; 1633,347; 1480,129; 0,00000
 351,18; 1408,753; 1390,993; 1449,069;30,57941
 351,77; 1124,821; 1139,751; 1232,996;-16,01190
 352,36;  991,594; 1017,169; 1110,577;-27,38069
 352,96;  669,795;  674,024;  732,733;-7,20396
 353,55; 1768,069; 1870,421; 1813,170; 0,00000
 354,14; 1309,118; 1374,822; 1339,799; 0,00000
 354,73;  660,841;  683,985;  663,594; 0,00000
 355,33; 1029,767; 1030,077; 1085,585;-0,55792
 355,92; 1335,316; 1366,602; 1378,915;-254,08401
 356,51;  746,257;  772,413;  903,694;-19,92325
 357,11;  954,791;  988,364; 1067,080;-42,65171
 357,70; 1467,736; 1512,959; 1535,212;-203,22499
 358,29; 1020,546; 1112,624; 1109,103; 0,00000
 358,89; 1025,568; 1084,567; 1080,013; 0,00000
 359,48; 1075,410; 1128,867; 1083,221; 0,00000
 360,07; 1882,369; 1911,421; 1990,170;-36,89275
 360,66; 1350,444; 1439,673; 1478,762;-228,27177
 361,26; 2145,277; 2206,405; 2279,263;-83,90059
 361,85; 1249,641; 1240,744; 1282,565;21,27366
 362,44; 1448,752; 1459,022; 1502,584;-23,57563
 363,04; 1061,800;  958,057; 1092,486;77,17340
 363,63; 1108,142; 1089,723; 1081,421; 0,00000
 364,22; 1516,834; 1571,644; 1570,143; 0,00000
 364,81; 1241,618; 1152,340; 1254,742;87,18346
 365,41; 1851,300; 1829,327; 1983,029;14,29576
 366,00;  733,656;  587,441;  833,209;59,49319
 366,59; 1829,740; 1674,013; 1840,109;93,75741
 367,18; 3215,095; 3150,908; 3332,404;35,36581
 367,78; 1300,581; 1179,189; 1384,616;59,09241
 368,37; 1177,679; 1052,480; 1202,304;83,56415
 368,96;  980,009;  869,502;  991,492;90,58680
 369,55; 1668,847; 1536,748; 1870,803;39,54396
 370,15; 1405,830; 1478,590; 1433,246; 0,00000
 370,74; 2042,559; 2084,757; 2151,278;-63,43574
 371,33; 1706,674; 1610,206; 1784,523;55,34042
 371,92; 2305,149; 2381,458; 2432,115;-150,63616
 372,51; 1655,715; 1757,506; 1829,730;-140,93777
 373,11; 1103,715; 1072,141; 1165,002;34,00126
 373,70; 1044,424; 1069,075; 1052,437; 0,00000
 374,29;  955,990;  998,758; 1035,323;-116,96485
 374,88; 1379,952; 1351,387; 1407,313;51,07729
 375,48; 1285,892; 1273,343; 1332,936;21,05785
 376,07; 1403,142; 1321,964; 1625,450;26,74862
 376,66; 1039,086;  951,704; 1049,426;89,41925
 377,25;  626,061;  670,467;  686,591;-275,39490
 377,84; 2154,279; 2114,480; 2208,304;42,41902
 378,44; 1789,284; 1785,264; 1844,657; 6,76769
 379,03;  921,523;  865,731; 1002,852;40,68798
 379,62; 1022,219; 1038,436; 1003,927; 0,00000
 380,21;  696,996;  648,273;  786,133;35,34233
 380,80; 1099,544; 1166,308; 1121,034; 0,00000
 381,39;  560,144;  527,308;  635,034;30,48084
 381,99; 1152,427; 1111,515; 1248,205;29,93057
 382,58; 1730,517; 1614,726; 1956,615;33,86789
 383,17; 2164,508; 2055,647; 2063,336;1415,76441
 383,76; 2283,620; 2269,021; 2382,540;12,86075
 384,35; 2021,495; 1964,783; 2174,705;27,01569
 384,94; 2559,516; 2542,871; 2750,458; 8,01798
 385,54; 2066,791; 2040,489; 2107,779;39,08781
 386,13;  994,939;  916,159; 1079,953;48,09729
 386,72; 1733,771; 1717,401; 1760,026;38,40468
 387,31; 1290,361; 1279,467; 1196,591; 0,00000
 387,90;  977,368;  970,326; 1011,985;16,90460
 388,49;  949,702; 1041,277;  954,370; 0,00000
 389,08; 2426,684; 2515,264; 2578,657;-139,73226
 389,68; 1412,154; 1481,607; 1357,197; 0,00000
 390,27; 1283,374; 1278,695; 1451,951; 2,70068
 390,86; 1310,878; 1302,625; 1364,148;13,41445
 391,45; 1273,811; 1247,722; 1223,377; 0,00000
 392,04; 2066,588; 2090,924; 2065,311; 0,00000
 392,63;  592,350;  577,678;  708,000;11,25866
 393,22;  994,578;  980,625; 1062,148;17,11547
 393,81;  904,076;  846,915;  947,835;56,63942
 394,41;  913,926;  916,295;  955,321;-6,07052
 395,00;  947,598;  966,348; 1081,173;-16,32876
 395,59;  436,672;  373,621;  425,910;120,58140
 396,18; 1081,827; 1117,515; 1087,205; 0,00000
 396,77; 1200,158; 1142,902; 1283,122;40,83262
 397,36; 2855,035; 2864,104; 2868,056;-229,52734
 397,95; 1271,365; 1240,761; 1339,516;30,98941
 398,54;  784,529;  805,735;  919,090;-18,70787
 399,13; 1647,740; 1625,889; 1706,409;27,13695
 399,72;  507,191;  514,489;  562,779;-15,11157
 400,31;  964,100;  962,057; 1002,486; 5,05331
 400,90; 1296,620; 1348,021; 1315,540; 0,00000
 401,50; 1419,901; 1469,423; 1427,214; 0,00000
 402,09; 1635,738; 1609,669; 1782,525;15,08156
 402,68; 1491,844; 1466,308; 1492,034;99,26120
 403,27;  854,627;  882,515;  892,205;-287,78414
 403,86;  894,142;  844,599;  951,722;46,24891
 404,45;  696,091;  623,854;  719,508;75,51991
 405,04; 1768,884; 1813,995; 1902,114;-51,19232
 405,63; 1241,560; 1186,977; 1317,163;41,92712
 406,22;  823,265;  830,396;  826,788; 0,00000
 406,81; 1282,518; 1293,581; 1295,771;-505,18395
 407,40; 1524,912; 1597,307; 1591,990; 0,00000
 407,99; 1777,583; 1751,409; 1825,501;35,32567
 408,58; 1717,595; 1674,418; 1797,976;34,94420
 409,17; 2034,883; 2048,775; 2195,229;-9,48535
 409,76; 1949,116; 2057,361; 1936,886; 0,00000
 410,35;  896,248;  867,968;  965,688;28,93997
 410,94; 1267,078; 1304,625; 1338,148;-112,00468
 411,53; 1972,147; 2006,238; 1993,231; 0,00000
 412,12; 1053,619;  960,166; 1030,384;133,09128
 412,71;  866,111;  839,211;  866,805;97,48657
 413,30;  860,395;  830,783;  891,705;48,60640
 413,89;  611,961;  619,467;  660,591;-18,25103
 414,48;  696,525;  650,805;  652,893;2190,01286
 415,07; 1459,952; 1387,263; 1556,613;42,92244
 415,66;  944,208;  889,012;  949,064;91,91369
 416,25; 1978,609; 1938,867; 2068,221;30,72393
 416,84; 2398,807; 2356,792; 2443,180;48,63527
 417,43;  928,315; 1000,871;  994,458; 0,00000
 418,02; 1234,127; 1366,515; 1333,205; 0,00000
 418,61;  878,838;  871,669; 1046,525; 4,10013
 419,20;  843,683;  760,775;  815,229;152,25217
 419,79;  776,635;  813,739;  809,328; 0,00000
 420,38; 1202,384; 1135,629; 1286,385;44,27993
 420,97; 1999,259; 2033,122; 2028,007; 0,00000
 421,56; 1030,654; 1002,973; 1066,925;43,28460
 422,15;  859,063;  777,541;  998,632;36,87275
 422,74; 2152,782; 2079,409; 2253,501;42,14624
 423,33; 1181,599; 1061,078; 1265,630;58,91948
 423,92; 1634,926; 1737,660; 1600,049; 0,00000
 424,51; 1160,076; 1114,915; 1213,835;45,65355
 425,10; 1139,425; 1001,805; 1138,893;100,38806
 425,69;  879,900;  786,933;  960,786;53,47443
 426,28;  908,682;  858,285; 1005,801;34,16380
 426,87; 1120,317; 1050,457; 1188,071;50,76548
 427,46; 2803,576; 2805,281; 2888,563;-2,04645
 428,04;  638,488;  578,289;  738,039;37,68323
 428,63; 1241,053; 1231,118; 1352,769; 8,16704
 429,22;  867,652;  833,898;  869,885;93,79536
 429,81; 1291,428; 1240,245; 1360,662;42,50451
 430,40;  475,330;  390,320;  515,703;67,80063
 430,99; 1583,220; 1462,021; 1684,540;54,46707
 431,58; 2689,319; 2690,801; 2718,655;-5,32031
 432,17; 2322,029; 2382,100; 2446,818;-92,81931
 432,76; 1566,207; 1591,157; 1655,908;-38,53242
 433,35; 1687,475; 1694,061; 1716,679;-29,11690
 433,94; 2271,170; 2445,911; 2348,598; 0,00000
 434,52;  386,809;  327,377;  388,793;96,76952
 435,11; 1155,633; 1120,760; 1179,472;59,39725
 435,70;  846,089;  783,144;  867,195;74,88917
 436,29;  462,500;  367,933;  562,786;48,53245
 436,88; 1545,413; 1589,797; 1571,418; 0,00000
 437,47; 1218,369; 1201,421; 1243,170;40,59491
 438,06; 1148,242; 1137,329; 1217,178;13,66759
 438,65; 4098,750; 4082,678; 4084,000;1215,54653
 439,23;  887,831;  846,810;  909,131;65,82278
 439,82; 1951,218; 1833,581; 2026,771;60,89174
 440,41; 1301,805; 1172,448; 1402,596;56,20620
 441,00; 1361,870; 1281,911; 1442,598;49,76070
 441,59; 1739,260; 1730,612; 1709,435; 0,00000
 442,18; 1137,778; 1084,990; 1196,876;47,18041
 442,77;  777,696;  740,514;  854,161;32,71688
 443,35; 2187,903; 2135,373; 2287,555;34,51760
 443,94; 1735,403; 1753,863; 1795,983;-43,82454
 444,53;  775,625;  764,805;  742,893; 0,00000
 445,12; 1613,105; 1606,083; 1648,867;16,41312
 445,71; 1584,885; 1567,360; 1646,842;22,04885
 446,30; 2246,137; 2202,814; 2301,368;43,95855
 446,88;  781,227;  638,025;  916,778;51,37220
 447,47; 1534,012; 1441,942; 1717,261;33,44121
 448,06;  869,169;  692,421;  859,170;105,99670
 448,65; 1640,985; 1446,849; 1701,270;76,30516
 449,24; 2087,213; 1916,797; 2106,418;89,87213
 449,82;  983,485; 1007,849; 1055,270;-51,37862
 450,41; 1169,868; 1171,691; 1215,713;-4,13999
 451,00; 1289,900; 1150,933; 1278,786;108,69271
 451,59;  495,956;  355,193;  546,810;73,46054
 452,18; 1043,987;  900,069; 1068,154;85,62180
 452,76;  796,748;  740,968;  891,688;37,00914
 453,35; 1211,410; 1140,867; 1265,221;56,72736
 453,94; 1027,423;  931,096; 1068,581;70,06390
 454,53; 1214,759; 1111,122; 1207,007;108,08519
 455,12; 1613,379; 1594,845; 1672,032;24,01228
 455,70;  833,542;  735,964;  860,450;78,38496
 456,29; 1011,836;  974,325;  999,940;146,43999
 456,88; 2042,480; 1909,210; 2152,760;54,71946
 457,47; 2557,033; 2359,395; 2637,743;71,00380
 458,05; 1297,984; 1106,995; 1312,114;93,11162
 458,64; 1214,478; 1043,501; 1302,448;66,02767
 459,23;  762,720;  704,021;  730,540;221,35010
 459,82; 1953,668; 1834,201; 1903,285;172,92953
 460,40; 1349,109; 1150,867; 1377,221;87,58085
 460,99; 1165,192; 1081,584; 1135,964;153,74752
 461,58; 1567,674; 1391,206; 1680,523;60,99461
 462,17;  423,026;  269,025;  351,777;186,09928
 462,75;  802,405;  658,083;  812,867;93,24053
 463,34; 1230,889; 1149,144; 1442,195;27,89450
 463,93; 1364,970; 1143,911; 1287,598;153,84791
 464,52; 1473,859; 1309,487; 1454,735;113,16674
 465,10; 1202,447; 1017,748; 1233,803;85,48692
 465,69; 1896,440; 1644,619; 2013,866;68,19862
 466,28;  577,463;  336,417;  685,932;68,96585
 466,86; 1714,025; 1529,171; 1717,621;98,09190
 467,45;  478,809;  323,867;  527,221;76,19361
 468,04;  497,699;  280,078;  447,630;129,88275
 468,63; 1328,660; 1016,977; 1325,163;101,13477
 469,21; 1473,023; 1275,461; 1526,309;78,75779
 469,80; 1916,626; 1820,025; 1939,777;80,66756
 470,39; 1651,413; 1465,672; 1681,718;85,97274
 470,97;  974,378;  802,990; 1068,876;64,45930
 471,56;  719,907;  503,792;  802,180;72,42753
 472,15; 1399,490; 1217,509; 1505,923;63,09686
 472,73; 1114,075;  915,061; 1254,679;58,59932
 473,32; 1685,263; 1414,417; 1778,932;74,30312
 473,91;  638,094;  359,294;  646,277;97,14881
 474,49; 1982,988; 1727,289; 2058,039;77,30891
 475,08;  810,784;  532,505;  996,686;59,95048
 475,67; 1248,415;  953,382; 1304,030;84,13922
 476,25; 2036,996; 1812,514; 2096,161;79,14117
 476,84;  900,027;  623,391;  950,506;84,56843
 477,43; 1449,345; 1217,039; 1509,491;79,43389
 478,01; 1669,629; 1365,100; 1755,818;77,94078
 478,60;  617,457;  374,413;  681,694;79,09499
 479,19; 1319,680; 1095,575; 1423,489;68,34261
 479,77; 1040,862;  749,197; 1235,047;60,03177
 480,36;  996,024;  598,316; 1058,465;86,43033
 480,94; 1007,705;  774,448; 1083,596;75,45172
 481,53; 1540,713; 1258,162; 1602,146;82,14089
 482,12; 1554,511; 1245,817; 1620,562;82,37457
 482,70; 1235,411;  874,452; 1390,833;69,90165
 483,29;  982,956;  666,558; 1170,538;62,77987
 483,88; 1000,058;  518,633; 1017,579;96,48852
 484,46;  974,145;  602,404; 1118,219;72,06868
 485,05; 1146,180;  754,210; 1267,760;76,32544
 485,63; 1930,172; 1441,986; 2040,638;81,54755
 486,22; 1287,981;  860,795; 1325,373;91,95141
 486,81;  712,259;  404,122;  842,007;70,36945
 487,39;  997,607;  527,033; 1154,208;75,03066
 487,98; 1000,932;  648,540; 1115,587;75,45097
 488,56; 1473,177; 1060,135; 1573,720;80,42338
 489,15; 1723,314; 1353,017; 1806,302;81,69197
 489,74; 2199,132; 1697,540; 2384,587;73,00689
 490,32; 1203,329;  802,100; 1268,818;85,96813
 490,91; 1017,847;  495,479; 1147,260;80,14482
 491,49; 1096,545;  603,404; 1159,219;88,72396
 492,08; 1255,777;  832,135; 1291,720;92,17935
 492,66; 2497,822; 1986,241; 2586,424;85,23742
 493,25; 1084,656;  638,558; 1175,538;83,07534
 493,84; 1792,805; 1303,448; 1812,596;96,11301
 494,42; 1466,164;  869,637; 1512,816;92,74664
 495,01; 1758,893; 1285,074; 1786,392;94,51461
 495,59; 1420,734;  906,615; 1511,628;84,97657
 496,18;  987,930;  494,320; 1103,703;81,00169
 496,76; 1490,972; 1084,986; 1543,638;88,51723
 497,35;  773,078;  326,501;  964,448;70,00216
 497,93; 1719,052; 1210,263; 1865,613;77,63625
 498,52; 1141,075;  526,061; 1176,679;94,52761
 499,10; 1720,122; 1100,606; 1834,153;84,45492
 499,69; 2812,601; 2332,153; 2876,670;88,23378
 500,27; 2687,489; 2102,655; 2855,767;77,65559
 500,86; 2492,218; 2002,822; 2643,799;76,35147
 501,44; 2914,548; 2298,333; 3028,416;84,40348
 502,03; 1180,368;  485,932; 1330,742;82,20033
 502,61; 1474,423;  903,461; 1611,309;80,66172
 503,20;  766,609;  148,743;  934,521;78,63113
 503,78; 1873,024; 1224,826; 1948,037;89,62771
 504,37; 1082,608;  496,888; 1285,365;74,28500
 504,95; 2993,746; 2376,259; 3038,375;93,25966
 505,54;  835,018;  155,822;  923,799;88,43952
 506,12; 2002,248; 1303,844; 2236,988;74,84417
 506,71; 1308,758;  626,143; 1453,151;82,54029
 507,29; 1271,708;  609,523; 1312,636;94,17892
 507,88; 1195,155;  470,068; 1210,110;97,97919
 508,46;  768,371;   19,496;  936,210;81,69125
 509,05; 1178,640;  537,619; 1376,866;76,38054
 509,63; 3115,872; 2454,496; 3236,210;84,60577
 510,22; 1178,834;  514,250; 1325,900;81,88064
 510,80; 3060,381; 2394,430; 3281,645;75,06084
 511,39; 2555,627; 1841,756; 2723,234;80,98570
 511,97; 1697,979; 1020,355; 1814,604;85,31624
 512,55; 3437,462; 2748,562; 3718,776;71,00496
 513,14; 1261,692;  530,949; 1421,692;82,03747
 513,72; 2144,955; 1420,703; 2375,382;75,86340
 514,31; 2329,710; 1640,597; 2477,677;82,32343
 514,89; 2598,797; 1873,369; 2755,317;82,25285
 515,48; 1772,162;  939,927; 1968,504;80,91132
 516,06; 2293,487; 1397,310; 2530,183;79,10652
 516,65; 1623,739;  739,399; 1781,981;84,82207
 517,23;  861,502;   53,518; 1068,399;79,61365
 517,81; 1510,313;  798,672; 1593,718;89,50937
 518,40; 2100,068; 1161,932; 2237,742;87,20280
 518,98; 2130,106; 1361,303; 2305,752;81,40231
 519,57; 1494,191;  683,729; 1763,808;75,03728
 520,15; 1162,167;  265,077; 1346,585;82,94805
 520,73; 1858,733;  940,395; 2045,744;83,08129
 521,32; 2123,469; 1256,421; 2328,170;80,90030
 521,90; 1494,667;  550,347; 1603,129;89,69755
 522,49; 3933,950; 3029,918; 4192,029;77,79225
 523,07; 1418,566;  535,857; 1528,701;88,90711
 523,65; 3229,203; 2321,738; 3422,283;82,45596
 524,24; 2158,564; 1161,272; 2311,088;86,73491
 524,82; 2194,915; 1280,382; 2317,031;88,22015
 525,40; 2248,617; 1172,822; 2441,799;84,77657
 525,99; 1083,674;   81,936; 1333,979;80,00827
 526,57; 1857,127;  914,756; 2074,234;81,27545
 527,16; 2392,472; 1359,227; 2588,667;84,04194
 527,74; 1170,030;   85,831; 1407,275;82,04652
 528,32; 2454,802; 1357,518; 2656,399;84,47916
 528,91; 1353,667;  303,077; 1491,585;88,39568
 529,49; 1919,893;  824,439; 2032,120;90,70721
 530,07; 1866,520;  824,897; 2077,840;83,13411
 530,66; 1179,171;   61,372; 1443,511;80,87460
 531,24; 1670,258;  556,633; 1814,579;88,52730
 531,82; 1512,016;  358,237; 1699,187;86,04193
 532,41; 1983,215;  835,747; 2194,759;84,43401
 532,99; 1800,158;  543,633; 1910,579;91,92211
 533,57; 1997,652;  795,263; 2168,613;87,55155
 534,16; 2074,728;  853,611; 2323,390;83,08168
 534,74; 1720,564;  392,637; 1845,816;91,38083
 535,32; 2886,375; 1535,791; 3012,135;91,48165
 535,90; 2459,539; 1193,765; 2573,709;91,72645
 536,49; 1752,487;  541,800; 2028,611;81,42847
 537,07; 1383,652;   22,263; 1583,613;87,19308
 537,65; 3304,091; 1981,364; 3457,080;89,63289
 538,24; 1567,956;  147,923; 1694,266;91,83169
 538,82; 1886,131;  454,685; 2077,431;88,21132
 539,40; 3001,007; 1497,398; 3309,937;82,95597
 539,99; 2684,668; 1216,567; 2927,013;85,83145
 540,57; 1864,044;  410,549; 2092,063;86,43966
 541,15; 2992,201; 1581,153; 3270,670;83,51784
 541,73; 2653,298; 1250,223; 2868,474;86,70318
 542,32; 1860,408;  227,888; 2113,365;86,58394
 542,90; 2581,101;  879,663; 2734,243;91,74249
 543,48; 3250,609; 1529,108; 3419,249;91,07792
 544,06; 2435,434;  758,250; 2488,900;96,91065
 544,65; 3223,932; 1533,271; 3433,044;88,99283
 545,23; 1982,693;  126,315; 2215,421;88,85992
 545,81; 4825,988; 2993,655; 5138,767;85,41900
 546,39; 1998,708;   -3,747; 2299,093;86,95590
 546,98; 3026,725; 1101,046; 3315,922;86,94298
 547,56; 2834,287;  853,800; 3047,611;90,27612
 548,14; 3604,088; 1430,655; 3771,767;92,83765
 548,72; 3581,427; 1626,756; 3906,234;85,75081
 549,31; 2699,327;  623,756; 2962,234;88,75735
 549,89; 2983,291;  824,095; 3430,536;82,84079
 550,47; 3065,448;  814,844; 3507,988;83,56790
 551,05; 2879,013;  632,672; 3086,718;91,53621
 551,63; 4100,613; 1826,672; 4438,718;87,05593
 552,22; 3233,594;  927,659; 3544,005;88,13573
 552,80; 3061,333;  833,395; 3456,743;84,92725
 553,38; 3189,450;  835,284; 3706,757;81,98463
 553,96; 3063,291;  611,729; 3442,808;86,59462
 554,54; 3954,075; 1512,426; 4466,407;82,65621
 555,13; 3257,460;  779,853; 3670,463;85,71224
 555,71; 2547,323;  -27,029; 2955,881;86,30336
 556,29; 4415,889; 1829,020; 4907,496;84,03083
 556,87; 3212,308;  615,888; 3825,365;80,89854
 557,45; 3036,722;  345,241; 3478,424;85,90244
 558,03; 3030,478;  208,231; 3574,905;83,82895
 558,62; 3763,590;  993,875; 4206,652;86,20938
 559,20; 3232,424;  362,191; 3668,765;86,80382
 559,78; 4316,825; 1476,046; 4896,921;83,04246
 560,36; 3543,098;  558,589; 4080,202;84,74836
 560,94; 3750,614;  795,892; 4116,603;88,97861
 561,52; 4843,283; 1661,015; 5228,258;89,20805
 562,11; 3801,295;  693,024; 4337,733;85,28173
 562,69; 4154,729; 1087,831; 4861,275;81,27585
 563,27; 3262,902;   90,883; 3920,127;82,83669
 563,85; 4443,940; 1101,985; 5029,594;85,08881
 564,43; 3258,569;  -40,213; 3696,898;88,27092
 565,01; 3919,674;  427,936; 4415,979;87,55517
 565,59; 3575,123;  172,337; 4006,609;88,74659
 566,18; 3844,329;  302,976; 4333,119;87,87164
 566,76; 4061,515;  578,382; 4657,030;85,39919
 567,34; 4600,320; 1067,897; 5139,840;86,75030
 567,92; 4677,241; 1132,350; 5311,322;84,82686
 568,50; 4564,816;  825,967; 5251,643;84,48086
 569,08; 5049,117; 1398,967; 5600,643;86,87366
 569,66; 4347,412;  659,183; 5026,290;84,45474
 570,24; 4378,430;  635,320; 5002,703;85,70603
 570,82; 5168,046; 1509,989; 5884,832;83,61575
 571,40; 4115,315;  252,747; 4817,759;84,61244
 571,99; 4194,149;  394,699; 4840,144;85,46838
 572,57; 4404,029;  519,341; 5035,847;86,01091
 573,15; 5682,012; 1693,817; 6272,562;87,10236
 573,73; 4004,686;  -59,055; 4626,455;86,72997
 574,31; 4486,621;  369,386; 5099,268;87,04730
 574,89; 4740,182;  661,161; 5440,102;85,35408
 575,47; 4058,759;  -57,002; 4865,307;83,61443
 576,05; 5132,259; 1024,487; 5976,735;82,94763
 576,63; 4877,978;  720,231; 5855,905;80,95816
 577,21; 4419,656;  330,558; 5155,538;84,74849
 577,79; 4867,374;  727,936; 5856,979;80,70585
 578,37; 4179,466; -195,143; 5099,701;82,62017
 578,95; 4663,412;  355,817; 5749,562;79,86278
 579,53; 4714,891;  324,095; 5673,536;82,07953
 580,11; 4325,607;  -96,967; 5246,208;82,77052
 580,69; 5555,304; 1179,958; 6509,168;82,10122
 581,27; 6959,930; 2450,196; 7913,003;82,55342
 581,85; 5211,806;  611,813; 6288,324;81,03556
 582,43; 5984,638; 1271,910; 7184,553;79,70595
 583,01; 5300,939;  556,765; 6374,709;81,54382
 583,59; 5102,831;  293,685; 6173,431;81,79172
 584,17; 5710,855;  920,703; 6834,382;81,00122
 584,75; 5694,624;  652,191; 6664,765;83,86479
 585,33; 6102,574;  957,936; 7085,979;83,95238
 585,91; 6380,691; 1176,095; 7205,536;86,31972
 586,49; 5904,240;  536,619; 6847,866;85,04851
 587,07; 5944,377;  577,501; 6885,448;85,08119
 587,65; 6350,364;  995,637; 7312,816;84,76453
 588,23; 6089,284;  753,235; 7082,142;84,31233
 588,81; 6376,980;  955,941; 7266,217;85,90812
 589,39; 6008,052;  654,139; 6856,913;86,31481
 589,97; 7391,229; 1810,831; 8242,274;86,76744
 590,55; 5869,350;  341,919; 6905,029;84,21970
 591,13; 6149,224;  649,316; 7160,465;84,46909
 591,71; 6647,509; 1032,108; 7671,249;84,58024
 592,29; 6129,871;  639,007; 7101,782;84,96139
 592,87; 6770,206; 1408,813; 8080,324;80,36249
 593,45; 5627,907;  371,033; 6907,208;80,42737
 594,03; 6955,980; 1592,941; 8588,217;76,66659
 594,61; 5504,779;  195,355; 6988,604;78,15735
 595,19; 5890,820;  590,897; 7425,840;77,54158
 595,77; 5476,978;  139,866; 7173,176;75,88336
 596,35; 5823,085;  645,090; 7582,298;74,64091
 596,93; 5317,245;   65,404; 7034,219;75,36204
 597,51; 5701,365;  453,492; 7548,973;73,96079
 598,09; 5701,422;  586,606; 7593,153;73,00053
 598,66; 6384,556; 1345,923; 8439,267;71,03326
 599,24; 5265,159;  277,998; 7483,307;69,21508
 599,82; 6297,577; 1395,011; 8549,021;68,52892
 600,40; 5521,140;  502,619; 7668,866;70,02998
 600,98; 6708,932; 1630,540; 9163,587;67,41484
 601,56; 5314,857;  220,778; 7620,422;68,84222
 602,14; 5521,060;  593,218; 7824,191;68,14908
 602,72; 5699,943;  621,059; 8150,635;67,45246
 603,30; 5487,603;  608,738; 8203,283;64,24170
 603,87; 5735,909;  787,618; 8558,821;63,67470
 604,45; 5832,551;  867,773; 8619,185;64,04999
 605,03; 5150,643;  278,059; 7952,635;63,48995
 605,61; 5699,879;  931,721; 8563,333;62,47904
 606,19; 4926,168;  131,932; 7897,742;61,73518
 606,77; 6039,213; 1341,037; 9221,446;59,61842
 607,35; 4613,571; -101,993; 7796,782;59,69994
 607,93; 4926,773;  123,081; 8183,823;59,59367
 608,50; 5673,672; 1065,861; 9094,938;57,38904
 609,08; 5199,585;  546,090; 8388,299;59,33909
 609,66; 6372,203; 1862,103; 9886,012;56,20827
 610,24; 5825,233; 1272,395; 9616,743;54,56194
 610,82; 4640,101;  196,663; 8496,242;53,53810
 611,40; 5917,712; 1506,672; 9670,718;54,03008
 611,97; 4587,089;  115,020; 8067,496;56,23493
 612,55; 4347,255;  -92,932; 8091,110;54,25420
 613,13; 5570,878; 1050,231; 9159,904;55,74388
 613,71; 5961,971; 1462,007; 9886,782;53,41346
 614,29; 5383,432;  908,905; 9120,315;54,49158
 614,87; 5237,463;  625,147; 8984,389;55,17625
 615,44; 5770,811; 1164,963; 9804,405;53,31186
 616,02; 4814,051;  218,773; 8824,185;53,39986
 616,60; 4843,985;  269,090; 8901,299;52,99797
 617,18; 5738,338; 1210,275; 9880,281;52,22676
 617,76; 5755,244; 1195,914;10188,791;50,69935
 618,33; 4740,079;  204,086; 8999,061;51,57483
 618,91; 5777,181; 1115,306;10207,945;51,27086
 619,49; 6461,013; 1740,037;10525,446;53,73655
 620,07; 5849,829; 1120,976; 9906,118;53,82785
 620,64; 5471,036;  780,200; 9494,241;53,83078
 621,22; 4532,859; -108,002; 8632,307;53,09722
 621,80; 5042,773;  307,081; 9158,823;53,50011
 622,38; 6699,189; 2106,020;10955,495;51,90329
 622,95; 5743,212;  928,183;10100,290;52,49643
 623,53; 4708,915;  -88,253; 9270,759;51,25721
 624,11; 5403,229;  569,831; 9572,274;53,68985
 624,69; 5019,879;  189,086; 9395,061;52,47455
 625,26; 5074,332;  196,540; 9387,587;53,07112
 625,84; 5022,517;  121,967; 9348,644;53,11284
 626,42; 5254,746;  469,624; 9713,104;51,76754
 627,00; 5556,728;  912,245;10166,662;50,18666
 627,57; 5822,900; 1095,298;10584,515;49,82079
 628,15; 4578,519; -119,958; 9171,684;50,56671
 628,73; 6160,026; 1432,901;10803,078;50,44862
 629,31; 5482,490;  626,509;10014,924;51,72311
 629,88; 5788,622;  788,117;10384,725;52,10700
 630,46; 4743,790; -184,125; 9233,651;52,32568
 631,04; 5536,255;  493,703;10199,382;51,95465
 631,61; 5547,073;  546,081;10343,823;51,04229
 632,19; 4816,200; -232,826; 9468,814;52,04301
 632,77; 5330,614;  485,527;10182,874;49,96301
 633,34; 5069,978;  215,866; 9926,177;49,98926
 633,92; 5854,539;  790,765;10685,709;51,17537
 634,50; 5197,327;  184,391; 9999,506;51,07363
 635,08; 6716,721; 1636,386;11547,269;51,26016
 635,65; 5853,495;  791,024;10784,733;50,65657
 636,23; 5579,014;  475,892;10573,603;50,53742
 636,81; 6677,308; 1470,888;11444,365;52,20266
 637,38; 4968,826; -310,099; 9904,078;51,68233
 637,96; 5080,602; -110,482; 9923,398;51,73555
 638,54; 6443,534; 1350,615;11569,628;49,83768
 639,11; 5506,470;  144,152;10694,626;50,82537
 639,69; 7094,011; 1775,328;12284,134;50,61168
 640,26; 5581,052;  136,788;10597,993;52,04242
 640,84; 6272,147;  880,792;11358,218;51,45686
 641,42; 5586,542;  182,797;10815,442;50,82220
 641,99; 5498,436;  103,801;10739,667;50,72116
 642,57; 5910,530;  526,805;11027,892;51,26827
 643,15; 6981,325; 1497,809;12131,115;51,56924
 643,72; 5370,819; -126,187;10417,340;52,13631
 644,30; 5641,814;  156,817;10998,564;50,59145
 644,87; 6477,909;  883,822;11888,789;50,83238
 645,45; 5453,903; -233,174;10889,014;51,13272
 646,03; 6911,698; 1176,830;12490,238;50,69089
 646,60; 7272,992; 1450,834;12975,462;50,51927
 647,18; 5760,387;   55,838;11320,687;50,64026
 647,75; 6173,881;  229,842;11635,911;52,11295
 648,33; 6003,076;   50,846;11400,136;52,44583
 648,91; 5551,470; -342,149;10954,360;52,17204
 649,48; 5980,565;   64,855;11407,584;52,15420
 650,06; 6418,759;  273,859;12067,809;52,10214
 650,63; 6098,154;    8,863;11764,033;51,80096
 651,21; 6861,848;  794,867;12482,258;51,91048
 651,79; 7307,743; 1184,871;12823,482;52,60827
 652,36; 6966,938;  789,876;12407,707;53,16880
 652,94; 6471,032;  304,880;12063,931;52,43750
 653,51; 6338,727;  157,884;11780,155;53,18102
 654,09; 7080,421;  770,888;12511,380;53,74164
 654,66; 6835,416;  561,892;11944,604;55,11449
 655,24; 6914,810;  344,896;12320,829;54,85931
 655,81; 7826,604; 1133,901;13285,053;55,07876
 656,39; 7215,399;  424,905;12899,277;54,43556
 656,96; 6966,494;   44,909;12670,502;54,82186
 657,54; 8303,389; 1420,913;14045,727;54,51546
 658,11; 7517,283;  505,917;13199,951;55,23355
 658,69; 7491,677;  590,921;13306,176;54,27147
 659,27; 8007,272;  855,925;13723,399;55,57693
 659,84; 8539,267; 1275,930;14294,624;55,79159
 660,42; 7423,161;   87,934;13214,849;55,87929
 660,99; 7239,655; -329,062;13238,073;55,78714
 661,57; 8421,650;  684,942;13955,298;58,30068
 662,14; 8841,444;  955,946;14255,521;59,29135
 662,72; 7688,439; -294,050;13491,746;57,90372
 663,29; 8220,434;   -0,045;13725,971;59,88977
 663,87; 8025,028; -295,041;13309,195;61,15793
 664,44; 9648,123; 1287,963;14786,420;61,93419
 665,01; 9096,917;  451,967;14342,644;62,23563
 665,59; 9150,312;  212,971;14260,868;63,62049
 666,16; 9211,506;   15,975;13968,093;65,90778
 666,74; 9465,400;  177,979;14461,317;65,02276
 667,31; 9647,695;  139,984;14536,542;66,04156
 667,89;10279,590;  391,988;15060,767;67,40576
 668,46;11581,284; 1389,992;16253,990;68,56360
 669,04;11597,079; 1139,996;16251,215;69,20079
 669,61;10974,174;  219,000;15412,439;70,78828
 670,19;11100,468;   48,004;15669,664;70,75089
 670,76;11119,963;   40,009;15553,889;71,41962
 671,33;11332,657;  -66,987;15545,112;73,01801
 671,91;13213,552; 1346,017;17217,338;74,77345
 672,48;12124,046;  285,021;16228,562;74,25593
 673,06;12650,541;  960,025;16910,785;73,29128
 673,63;12042,835;  232,029;16289,011;73,55558
 674,21;11906,229; -369,967;15895,235;75,47521
 674,78;13057,324;  779,038;16923,459;76,05281
 675,35;13049,818;  486,042;16904,684;76,52141
 675,93;14092,413; 1238,046;17813,908;77,54871
 676,50;13140,008;  326,050;16767,133;77,93865
 677,08;12841,702;  109,054;16642,357;77,01212
 677,65;12652,097;  -44,942;16340,581;77,48937
 678,22;13312,892;  271,063;17131,807;77,35026
 678,80;12902,786; -268,933;16488,031;78,60445
 679,37;13602,480; -122,929;17007,254;80,12413
 679,94;13846,375;    6,075;17062,479;81,14430
 680,52;14637,470;  627,079;17897,703;81,12267
 681,09;14943,864;  755,083;18169,928;81,47521
 681,67;15804,158;  943,087;18860,152;82,94367
 682,24;15737,753;  756,092;19201,377;81,22217
 682,81;15314,147;   -6,904;18507,602;82,75161
 683,39;15353,242;  -68,900;18892,826;81,33301
 683,96;15694,236;  233,104;19327,051;80,97400
 684,53;16496,230;  917,108;19870,275;82,19799
 685,11;16593,227;  650,112;19593,500;84,16190
 685,68;16634,820;  306,117;19814,723;83,70000
 686,25;16462,814;   37,121;19744,947;83,34604
 686,83;17067,510;  540,125;20574,172;82,49649
 687,40;17338,703;  628,129;20960,396;82,18746
 687,97;17374,098;  533,133;20891,621;82,72208
 688,55;16929,094;  -44,863;20890,846;81,07658
 689,12;17181,787;  218,141;21088,070;81,28272
 689,69;18259,182; 1332,146;21852,295;82,48983
 690,27;17493,576;  126,150;20799,520;84,00869
 690,84;17175,371; -329,846;20405,744;84,42112
 691,41;18456,365;  813,158;21490,967;85,32436
 691,98;18415,461; 1105,162;21488,191;84,92505
 692,56;18175,955;  630,166;21580,416;83,74978
 693,13;17375,949; -276,829;20973,641;83,07006
 693,70;18407,244;  669,175;21964,865;83,29417
 694,28;18198,639;  262,179;22022,090;82,42892
 694,85;18112,934;  -51,817;21694,314;83,53095
 695,42;18623,727;  173,187;22512,539;82,59210
 695,99;19116,922;  727,191;23263,764;81,59950
 696,57;18411,717;  -45,805;22262,988;82,73653
 697,14;19062,311;  419,200;22634,213;83,92122
 697,71;18927,406;  206,204;22512,436;83,92813
 698,28;19528,400;  560,208;23123,660;84,06600
 698,86;21114,395; 2059,212;24482,885;84,97797
 699,43;20156,289;  745,216;23177,109;86,53337
 700,00;20132,484;  273,220;23456,334;85,66263
 700,57;19540,479; -392,775;22927,559;85,47585
 701,15;20611,172;  748,229;24081,783;85,12609
 701,72;20094,066; -110,767;23205,008;86,65735
 702,29;21551,063;  806,237;24418,232;87,85715
 702,86;20491,855; -429,759;23026,457;89,19433
 703,43;21829,551;  899,245;24461,682;88,82912
 704,01;20725,746;  -93,751;23056,904;89,93049
 704,58;20413,240; -379,746;23123,129;88,46997
 705,15;21897,135;  695,258;24573,354;88,79216
 705,72;20889,729; -358,738;23453,578;89,23309
 706,29;21288,324;  111,266;23831,803;89,27731
 706,87;21392,018;  435,270;24049,027;88,74804
 707,44;21522,313;  232,274;24264,252;88,59045
 708,01;21882,008;  271,279;24595,477;88,84457
 708,58;21624,801; -329,717;24187,701;89,54661
 709,15;21528,096; -434,713;24188,926;89,19400
 709,72;23015,291; 1309,291;25932,150;88,15386
 710,30;22376,586;  562,295;25941,373;85,95384
 710,87;21002,580; -362,701;25013,598;84,19384
 711,44;21253,574;  -48,697;25449,822;83,54317
 712,01;21571,568;  -87,692;25626,047;84,23225
 712,58;22009,764; -317,688;25762,271;85,61153
 713,15;23203,357;  327,316;26890,496;86,11936
 713,73;23063,553;  322,320;26734,721;86,10059
 714,30;23069,646;  619,324;26482,945;86,80270
 714,87;23104,041;  498,328;26521,170;86,86873
 715,44;22765,936;  -18,667;26447,395;86,08989
 716,01;23561,330;  669,337;27451,619;85,47439
 716,58;23575,725;  467,341;27533,842;85,37632
 717,15;25785,020; 1913,345;29112,066;87,76763
 717,72;24167,215;  -44,651;27173,291;88,95553
 718,30;24558,209; -431,647;27320,516;90,04652
 718,87;24802,504;  328,358;28020,740;88,37862
 719,44;24862,299;  275,362;28307,965;87,70836
 720,01;24721,793;  238,366;28435,189;86,83044
 720,58;25430,486; 1059,370;29680,414;85,15104
 721,15;24124,381; -253,626;28359,639;85,19827
 721,72;24603,576;  150,378;28745,863;85,51419
 722,29;25179,670;  609,382;28982,088;86,59832
 722,86;25055,766;  215,387;28633,311;87,41096
 723,43;25802,660;  907,391;29078,535;88,37152
 724,00;25304,654;  609,395;28941,760;87,16272
 724,57;25439,949;  709,399;29018,984;87,35751
 725,14;25003,943;  124,403;28911,209;86,42689
 725,72;25703,938;  259,407;29683,434;86,47535
 726,29;26285,932;  573,411;30019,658;87,32020
 726,86;27402,227; 1334,416;30799,883;88,46902
 727,43;27267,422;  858,420;30694,107;88,51481
 728,00;26731,316;  228,424;30260,332;88,24911
 728,57;27793,611;  997,428;31584,555;87,60608
 729,14;27087,605;  -33,568;30888,779;87,70736
 729,71;27409,799;  587,436;31385,004;87,09247
 730,28;27621,193;  957,441;31486,229;87,33970
 730,85;27453,988;  796,445;31331,453;87,30158
 731,42;26817,783;  -73,551;30301,678;88,53047
 731,99;27021,777;  -32,547;30459,902;88,72467
 732,56;28336,271; 1321,457;31220,127;90,35457
 733,13;27700,467;  360,461;30077,352;92,00157
 733,70;28373,561;  606,466;30607,576;92,55356
 734,27;28221,256;  127,470;31108,801;90,67973
 734,84;27100,051; -530,526;31182,023;87,12821
 735,41;28267,244;  946,478;32392,248;86,88217
 735,98;28318,340;  274,482;32331,473;87,48126
 736,55;27750,234; -456,514;31678,697;87,77521
 737,12;28149,428; -246,510;31550,922;89,30261
 737,69;28405,723;   80,495;31132,146;91,21971
 738,26;28204,717;  -42,501;31427,371;89,75956
 738,83;28753,813;  395,503;31820,596;90,24097
 739,40;29183,107;  317,507;32856,820;88,70992
 739,97;29270,301;  146,511;33819,043;86,49124
 740,53;29371,996;  718,515;34773,270;84,13944
 741,10;29100,189;  796,520;34553,492;83,84540
 741,67;29089,584;  375,524;34279,719;84,69176
 742,24;29893,479;  312,528;34585,941;86,30874
 742,81;29558,373; -436,468;33383,168;88,69061
 743,38;31487,568; 1609,536;34812,391;89,98634
 743,95;30502,563;  342,540;33806,613;90,12657
 744,52;31493,957; 1037,544;34909,840;89,91541
 745,09;30516,852; -201,451;33991,063;89,83926
 745,66;31180,646;  905,553;34294,289;90,67457
 746,23;30855,941;  698,557;34034,512;90,46504
 746,80;31354,535; 1341,561;34807,738;89,68151
 747,36;30766,730;  770,565;34307,961;89,44095
 747,93;30217,225;   -4,431;34108,188;88,59377
 748,50;30164,219; -125,426;34350,410;87,85761
 749,07;30511,713;  173,578;35316,637;86,32753
 749,64;30124,508;  -39,418;34938,859;86,23617
 750,21;31164,902; 1177,586;36005,082;86,10242
 750,78;30085,197;  -82,410;34037,309;88,41693
 751,35;30820,893;  673,594;35052,531;87,69119
 751,92;30337,486;  -17,402;34913,758;86,89917
 752,48;29920,080; -403,397;34662,980;86,47451
 753,05;30060,076;  110,607;34982,207;85,88499
 753,62;31228,570;  970,611;35866,430;86,70941
 754,19;31227,164;  922,615;35850,656;86,76281
 754,76;31725,559; 1205,619;36094,879;87,47660
 755,33;30263,854; -403,377;34884,105;86,90682
 755,89;32126,848; 1093,628;36551,328;87,52181
 756,46;31260,943;  261,632;35915,551;86,94503
 757,03;31374,438;  353,636;35733,777;87,67857
 757,60;30337,732; -295,360;35158,000;86,40392
 758,17;30569,727;  468,644;35803,227;85,18873
 758,74;30938,621; 1008,648;36620,449;84,04510
 759,30;29832,516; -459,348;35092,676;85,20433
 759,87;30634,709;  296,657;35815,898;85,41301
 760,44;31455,104; 1178,661;36576,125;85,53280
 761,01;30308,498;  164,665;35655,348;84,93450
 761,58;30840,594;  720,669;35761,574;85,95647
 762,14;30491,889;  272,673;35347,797;86,15569
 762,71;30896,482;    8,677;35484,020;87,06838
 763,28;31699,678;  759,682;35762,246;88,39351
 763,85;30704,971; -385,314;34443,469;89,26607
 764,41;31257,566;  320,690;35286,695;88,47701
 764,98;31583,660;  306,694;36159,918;87,23613
 765,55;30497,756; -423,302;34966,145;87,37367
 766,12;30784,850;  695,702;35199,367;87,20566
 766,69;30377,244;  397,706;34580,594;87,70335
 767,25;31478,439; 1124,711;35543,816;88,18860
 767,82;31138,834;  389,715;34805,043;89,34716
 768,39;30969,627;  -43,281;35240,266;87,89623
 768,95;30697,123; -112,277;35156,488;87,35605
 769,52;30744,916;  286,727;35531,715;86,41850
 770,09;30865,012; 1030,731;35302,938;87,05095
 770,66;32715,506; 2322,736;36568,164;88,74986
 771,22;32117,100; 1146,740;35611,387;89,86124
 771,79;32544,494; 1407,744;36495,613;88,73936
 772,36;31440,490;  883,748;35405,836;88,51360
 772,93;30082,584;   13,752;34481,063;87,23870
 773,49;30785,879;  819,756;35336,285;86,81673
 774,06;30780,773;  251,760;35141,512;87,50138
 774,63;30899,467;  293,765;35559,734;86,78537
 775,19;30511,662;   63,769;35210,957;86,62967
 775,76;30349,156;  172,773;35123,184;86,34057
 776,33;29896,752; -162,223;34134,406;87,64411
 776,89;30613,746;  731,781;35505,633;85,93228
 777,46;30077,439;  198,785;34896,855;86,11042
 778,03;30634,635;  465,790;35078,082;87,16223
 778,59;29865,930; -475,206;33840,305;88,41814
 779,16;30920,424; -159,202;34160,531;90,55905
 779,73;31448,119;  291,802;35087,754;89,54006
 780,29;31509,014;  489,806;35285,980;89,14545
 780,86;31012,207;  142,810;34182,203;90,68727
 781,43;31522,102; 1048,814;34909,426;89,99627
 781,99;30610,697;  -51,181;33955,652;90,16387
 782,56;31409,990;  533,823;34331,875;91,35487
 783,13;31387,986;  378,827;34889,102;89,85486
 783,69;30480,580;  -40,169;34139,324;89,29550
 784,26;30089,875;  -53,165;34306,551;87,72785
 784,82;30157,568;  194,839;34553,773;87,20506
 785,39;29216,264; -575,156;33536,000;87,33629
 785,96;29558,559;  131,848;33991,223;86,90861
 786,52;29360,053;  375,852;33930,449;86,37922
 787,09;29144,447;  139,856;33701,672;86,42140
 787,65;28724,541; -292,140;33205,895;86,62204
 788,22;29618,736;  604,864;34423,121;85,79352
 788,79;30024,031;  551,869;34690,344;86,33122
 789,35;29557,225;   23,873;34246,570;86,29756
 789,92;29552,221;  -82,123;34301,793;86,18665
 790,48;29354,615;  159,881;34514,020;84,98171
 791,05;29419,908;  404,885;34847,242;84,24227
 791,62;29767,504;  981,889;35170,469;84,19658
 792,18;29261,598;  333,893;34350,691;85,03947
 792,75;28684,793;  -73,102;33422,918;85,85466
 793,31;28233,486; -170,098;32527,141;86,86845
 793,88;29349,281; 1132,906;33797,363;86,38250
 794,44;28025,576;  138,910;32289,590;86,73741
 795,01;28491,271;  604,914;33081,813;85,86521
 795,57;28111,766;  125,918;32842,039;85,54146
 796,14;28890,959;  652,923;33262,262;86,59494
 796,70;28212,754; -375,073;32049,486;88,16720
 797,27;29237,049;  779,931;33195,711;87,78785
 797,83;28544,143;  -19,065;32063,936;89,02910
 798,40;29286,338;  338,939;32672,160;89,52835
 798,97;29152,732;   86,943;32576,385;89,46226
 799,53;28780,428; -255,053;32559,609;88,48325
 800,10;28139,021; -396,048;32398,834;87,01074
 800,66;28359,717;  340,956;32261,059;87,77779
 801,23;28043,211;  355,960;31917,283;87,72525
 801,79;30501,506; 2639,964;33717,508;89,65169
 802,35;28633,699;  506,968;32075,730;89,09672
 802,92;28748,193;  187,972;32052,955;89,62886
 803,48;28432,488;  296,977;31774,180;89,38377
 804,05;28115,684;  551,981;31882,404;87,97743
 804,61;28643,377; 1141,985;32590,629;87,44858
 805,18;27831,072;  333,989;32301,854;86,01476
 805,74;28537,367;  923,993;33375,078;85,09230
 806,31;27945,662;  258,997;32573,303;85,67928
 806,87;30118,955; 2252,001;34745,527;85,76156
 807,44;27614,350; -300,994;31781,752;87,01046
 808,00;29039,244;  975,010;33007,977;87,61048
 808,57;28983,139;  558,014;32576,199;88,77806
 809,13;32378,834; 3568,018;36001,426;88,83068
 809,69;29065,428;  426,022;32999,648;87,92207
 810,26;30208,123; 1852,026;34191,875;87,68160
 810,82;27788,918; -497,969;31959,098;87,15171
 811,39;28883,213;  831,035;32465,322;88,67650
 811,95;29938,207; 1828,039;33564,547;88,57360
 812,51;28096,801; -108,957;31835,771;88,29550
 813,08;27914,695;  106,047;31361,996;88,97074
 813,64;27645,891;   -2,949;31553,221;87,61786
 814,21;29312,785; 1948,055;33244,445;87,43734
 814,77;30861,479; 3342,060;35068,668;86,73924
 815,33;28101,873;  200,064;31797,893;88,30293
 815,90;27627,268;  249,068;31915,117;86,45916
 816,46;27417,063;  435,072;31809,342;86,00038
 817,03;26761,457;  338,076;31054,566;86,02344
 817,59;27396,252; 1311,080;32334,791;84,08140
 818,15;27094,947; 1280,085;32356,016;83,07028
 818,72;26604,541;  693,089;31494,240;84,12495
 819,28;26025,535;  290,093;30897,465;84,08250
 819,84;27557,230; 1579,097;32226,689;84,76403
 820,41;25835,025; -107,899;30110,914;85,85024
 820,97;26842,219;  786,105;30563,137;87,50407
 821,53;26201,713;  -72,891;29728,361;88,16611
 822,10;27181,008; 1009,114;30564,586;88,55177
 822,66;26486,004;  402,118;30016,811;88,07752
 823,22;25540,697; -181,878;29201,035;87,54263
 823,79;28521,393; 2797,126;32493,260;86,62497
 824,35;25748,086;  -63,870;29834,484;86,33236
 824,91;25587,480; -114,866;29446,709;86,94512
 825,48;26563,676;  869,139;30342,934;87,17757
 826,04;26497,670;  905,143;29911,158;88,23179
 826,60;26049,766;  455,147;29583,383;87,86876
 827,17;26287,160;  636,151;29941,605;87,52981
 827,73;25322,754; -474,845;28499,830;89,03499
 828,29;25909,049; -106,841;28882,055;89,74433
 828,85;26555,143;  345,163;29264,279;90,63202
 829,42;27754,338; 1574,168;30288,504;91,17456
 829,98;26472,531; 1022,172;29535,729;89,25705
 830,54;25736,027;  939,176;29102,953;88,04519
 831,11;24033,422;  -40,820;27922,178;86,09321
 831,67;23712,615; -114,816;27607,402;85,95067
 832,23;23899,609; -180,812;27699,627;86,37031
 832,79;24071,805;  -18,807;27997,850;85,98675
 833,36;24894,600;  864,197;28929,074;85,62447
 833,92;23857,994;   32,201;27719,299;86,05378
 834,48;24136,889;  377,205;27823,523;86,56784
 835,04;23663,283;  -91,791;27383,748;86,45899
 835,60;24560,277;  721,213;28534,973;85,70961
 836,17;24870,072;  476,217;28663,197;86,54299
 836,73;24263,967; -245,778;28406,422;85,54228
 837,29;24276,660; -108,774;28242,646;86,01133
 837,85;24956,355;  864,230;28922,871;85,86348
 838,42;23444,650; -418,766;27460,096;85,59681
 838,98;23535,744; -445,762;27448,318;85,97346
 839,54;23689,939; -366,758;27954,543;84,94206
 840,10;24754,133;  596,247;28924,768;85,27761
 840,66;24248,527;  262,251;28050,992;86,31653
 841,23;24553,223;  593,255;28519,217;85,79818
 841,79;24757,217;  547,259;28993,441;85,10793
 842,35;25767,313; 1355,263;29618,666;86,37336
 842,91;24410,506;  126,267;27923,891;87,36084
 843,47;25144,701;  209,271;28475,115;88,21753
 844,03;24277,695; -304,724;27571,340;88,18469
 844,60;24103,789; -115,720;27582,564;87,44047
 845,16;23567,184; -513,716;27171,787;86,98018
 845,72;24275,180;   -2,712;27200,012;89,24802
 846,28;24528,773; -208,708;26690,236;91,96451
 846,84;24953,668;  156,296;26908,461;92,69295
 847,40;25464,262;  564,301;27917,686;91,03064
 847,96;24482,857;  -38,695;27188,910;90,06136
 848,53;24248,551;  -30,691;27045,135;89,67129
 849,09;24088,246;  -89,687;26978,359;89,32279
 849,65;24991,141;  538,317;27803,584;89,68489
 850,21;24894,836;  224,321;27739,809;89,66047
 850,77;25012,230;  287,326;27492,033;90,88466
 851,33;25362,824;  633,330;28084,256;90,08619
 851,89;26970,119; 2209,334;29834,480;89,63133
 852,45;24720,813; -186,662;27601,705;89,63274
 853,01;25251,908;  368,342;28603,930;88,12838
 853,57;25402,203;  276,346;28522,154;88,95429
 854,14;24586,996; -484,650;28150,379;87,55586
 854,70;24845,291; -130,645;28185,604;88,20355
 855,26;24587,586;   39,359;27958,828;87,92512
 855,82;23942,781; -137,637;27888,053;85,92266
 856,38;24143,074;  428,367;28235,277;85,28350
 856,94;24336,969;  738,371;28133,502;86,14158
 857,50;23960,965;  235,375;27435,725;87,22531
 858,06;23284,559; -365,620;26667,949;87,48448
 858,62;23265,254;  -84,616;26483,174;87,88789
 859,18;23669,748;  638,388;27148,398;86,87797
 859,74;23351,342;  253,392;26907,623;86,65772
 860,30;23610,938;  354,396;26922,848;87,53443
 860,86;23762,932;  -42,600;26685,072;89,06698
 861,42;23780,826; -457,596;26541,297;89,77562
 861,98;24464,121;  395,409;27299,521;89,46109
 862,54;23310,715; -406,587;26627,746;87,73030
 863,10;24053,809;  613,417;27778,971;86,28719
 863,66;23294,305;  -84,579;26950,193;86,47709
 864,22;24418,498;  761,425;28220,418;86,15419
 864,78;24200,193;   34,429;27689,643;87,38231
 865,34;24218,088;   -2,566;27371,867;88,47911
 865,90;24587,281;  425,438;27804,092;88,25066
 866,46;24113,576;  338,442;27483,316;87,58609
 867,02;25604,771; 2305,446;29624,541;85,28586
 867,58;22761,965;  -68,550;27239,766;83,60279
 868,14;24325,961; 1577,454;29160,990;82,47132
 868,70;24011,355;  957,458;28907,215;82,48336
 869,26;23968,750;  821,463;28546,438;83,48894
 869,82;23064,145; -166,533;27041,662;85,38118
 870,38;22393,039; -437,529;25804,887;86,99873
 870,94;23929,434; 1289,475;26982,111;88,11847
 871,50;22194,928; -418,521;25237,336;88,14147
 872,06;22533,121; -316,517;25676,561;87,90663
 872,62;22622,217; -118,512;25946,785;87,24523
 873,18;22667,111; -104,508;26050,010;87,06572
 873,74;23608,406; 1107,496;26677,234;87,99820
 874,29;22981,900;  729,500;25922,459;88,32786
 874,85;22162,500; -139,500;24592,459;90,17482
 875,41;22213,500;   -0,500;24135,459;92,03695
 875,97;22599,900;  388,500;24736,459;91,22490
 876,53;22983,900;  576,500;25610,459;89,50802
 877,09;23130,699;  535,500;25920,459;89,01019
 877,65;23912,500; 1298,500;26751,459;88,84625
 878,21;22972,699;  176,500;25809,459;88,93316
 878,77;23068,900;  292,500;25813,459;89,24586
 879,33;22923,600;  360,500;25958,459;88,14414
 879,88;22566,000;  -29,500;25319,459;89,13778
 880,44;22704,301;  343,500;25887,459;87,53851
 881,00;22591,699;  -91,500;25620,459;88,22042
 881,56;22724,699;  -89,500;25856,459;87,92968
 882,12;24332,301; 1368,500;26846,459;90,13203
 882,68;23541,600;  303,500;25509,459;92,19288
 883,24;24046,600;  656,500;25745,459;93,22866
 883,79;24600,900; 1452,500;26859,459;91,11047
 884,35;23990,000;  973,500;26497,459;90,17606
 884,91;22564,301; -363,500;25534,459;88,53130
 885,47;23574,699;  634,500;26674,459;88,09614
 886,03;23468,000;  576,500;26210,459;89,30146
 886,59;22781,801; -115,500;25559,459;89,18145
 887,14;23984,900; 1039,500;26880,459;88,79469
 887,70;22566,801; -555,500;25648,459;88,23972
 888,26;24378,301; 1217,500;27736,459;87,33676
 888,82;23737,500;  432,500;27284,459;86,79069
 889,38;24383,100;  984,500;27849,459;87,09710
 889,93;23844,500;  290,500;27089,459;87,89147
 890,49;23563,301; -379,500;26333,459;89,62991
 891,05;23935,699; -196,500;26395,459;90,74999
 891,61;24815,199;  370,500;27263,459;90,89628
 892,17;25161,600;  606,500;28176,459;89,06469
 892,72;24253,301; -188,500;28056,459;86,53509
 893,28;24545,400;  204,500;28960,459;84,64646
 893,84;23680,400; -407,500;28109,459;84,46869
 894,40;24566,301;  635,500;29283,459;83,53405
 894,95;23623,400; -392,500;28119,459;84,23097
 895,51;24219,600;  226,500;29015,459;83,34132
 896,07;24158,301;  -31,500;29195,459;82,76537
 896,63;23976,100; -377,500;28934,459;83,08418
 897,18;24651,801;  424,500;29869,459;82,27996
 897,74;24552,301;  146,500;29835,459;82,20497
 898,30;24236,100; -382,500;29233,459;83,12613
 898,85;25111,801;  348,500;29731,459;84,27776
 899,41;26008,301;  857,500;30308,459;85,39892
 899,97;25264,699; -439,500;29604,459;85,55530
 900,53;26300,801;  445,500;30033,459;87,38454
 901,08;25958,301; -292,500;29750,459;87,37755
 901,64;26887,400;  632,500;30267,459;88,59435
 902,20;26076,301;   -8,500;29547,459;88,25564
 902,75;26029,100;  196,500;29363,459;88,56803
 903,31;25516,500;   -8,500;28912,459;88,25779
 903,87;25186,199;  -91,500;29016,459;86,84119
 904,42;25662,801;  634,500;29723,459;86,04055
 904,98;25177,301;  512,500;29801,459;84,21194
 905,54;24485,100;  282,500;29233,459;83,59861
 906,09;24085,301;  186,500;28415,459;84,66058
 906,65;23089,301; -411,500;27045,459;85,59142
 907,21;23810,699;  479,500;27589,459;86,06136
 907,76;23150,699;  -65,500;26732,459;86,63421
 908,32;23355,699;   11,500;27250,459;85,70151
 908,88;23219,600;  -74,500;27579,459;84,23423
 909,43;24447,301;  962,500;29032,459;83,66525
 909,99;23807,699;  298,500;28158,459;84,38347
 910,54;23878,900;  291,500;27813,459;85,70393
 911,10;24961,100; 1300,500;28452,459;87,14141
 911,66;25604,100; 1931,500;28625,459;88,68149
 912,21;24315,100;  509,500;27743,459;87,41145
 912,77;23830,301; -198,500;27000,459;88,34456
 913,33;25011,301;  994,500;28736,459;86,57212
 913,88;24186,600;  340,500;28145,459;85,76204
 914,44;23313,199; -425,500;27476,459;85,07897
 914,99;23149,100;  -96,500;27091,459;85,49961
 915,55;23425,000;  391,500;27721,459;84,27931
 916,10;22980,801;  379,500;27661,459;82,84339
 916,66;23062,400;  614,500;27746,459;82,73601
 917,22;21905,100; -176,500;26595,459;82,48033
 917,77;21541,400; -493,500;25895,459;83,50045
 918,33;22919,000; 1060,500;27034,459;84,15544
 918,88;22124,301;  420,500;25678,459;85,92856
 919,44;21650,900;  213,500;25110,459;86,10449
 919,99;22010,100;  568,500;24977,459;87,84315
 920,55;22476,100; 1179,500;25617,459;87,14557
 921,10;21540,600;  146,500;24576,459;87,57321
 921,66;21931,699;  676,500;25326,459;86,22813
 922,21;21675,500;  189,500;25046,459;86,43857
 922,77;22036,801;  554,500;25604,459;85,75783
 923,32;23260,100; 2030,500;26714,459;86,00565
 923,88;22151,301;  937,500;25289,459;87,11332
 924,43;21518,301;  542,500;24536,459;87,42117
 924,99;21419,301;  449,500;24406,459;87,53115
 925,54;20946,900;    1,500;24455,459;85,65239
 926,10;20705,801; -310,500;24528,459;84,61023
 926,65;21748,801;  907,500;25954,459;83,20891
 927,21;21722,500; 1037,500;25713,459;83,82653
 927,76;21325,699;  691,500;25262,459;83,97800
 928,32;19905,301; -470,500;23799,459;83,95482
 928,87;20439,600;  229,500;23795,459;85,75972
 929,43;20389,600;  240,500;23220,459;87,68118
 929,98;19963,301;  -58,500;22836,459;87,45070
 930,54;19923,699;  -49,500;22858,459;87,18891
 931,09;19448,900; -240,500;22419,459;86,89072
 931,65;19798,600;  287,500;23303,459;84,77205
 932,20;19962,801;  628,500;23393,459;84,93009
 932,76;19791,301;  519,500;23621,459;83,42063
 933,31;19987,000;  843,500;23912,459;82,98381
 933,86;19582,100;  304,500;23153,459;84,36971
 934,42;19186,301;   14,500;23001,459;83,40295
 934,97;18946,301;  -23,500;22726,459;83,38389
 935,53;18623,699;  262,500;22498,459;82,57435
 936,08;17816,100;  -31,500;21833,459;81,62649
 936,63;16613,199; -127,500;20878,459;79,69500
 937,19;17176,699;  955,500;21274,459;79,83283
 937,74;15856,500;  344,500;19360,459;81,57359
 938,30;15729,000;  635,500;18842,459;82,89962
 938,85;14632,800; -149,500;17058,459;85,90385
 939,40;15546,700; 1008,500;17552,459;87,87619
 939,96;14510,200;  650,500;16160,458;89,36001
 940,51;13524,000;  166,500;14803,458;91,25872
 941,06;13750,600;  916,500;15080,458;90,61097
 941,62;12913,800;  575,500;14328,458;89,71379
 942,17;12693,700;  912,500;14513,458;86,62037
 942,73;13612,800; 1867,500;15763,458;84,52314
 943,28;11206,200; -312,500;13705,458;82,17103
 943,83;11653,000;  278,500;14045,458;82,62174
 944,39;11174,800; -105,500;13461,458;83,14539
 944,94;11656,300;  408,500;14100,458;82,14895
 945,49;13726,100; 2444,500;15937,458;83,61102
 946,05;11021,000; -455,500;13050,458;84,97361
 946,60;12227,300;  653,500;14290,458;84,87083
 947,15;11290,600; -276,500;12968,458;87,33210
 947,70;12095,100;  218,500;13733,458;87,87744
 948,26;12156,900;  214,500;13562,458;89,46987
 948,81;11992,400;  -87,500;13186,458;91,00451
 949,36;12094,300; -126,500;13442,458;90,06439
 949,92;12854,500;  668,500;14391,458;88,80010
 950,47;12970,900;  479,500;14670,458;88,02366
 951,02;13126,400;  373,500;14990,458;87,24729
 951,57;14429,500; 1440,500;16306,458;87,37412
 952,13;14318,700; 1093,500;16440,459;86,17473
 952,68;14231,300;  764,500;16519,459;85,47658
 953,23;15389,400; 1744,500;17642,459;85,82800
 953,79;14316,300;  741,500;16586,459;85,67267
 954,34;13833,600;  294,500;16020,458;86,09396
 954,89;13305,100;  -44,500;15713,458;84,71656
 955,44;13383,700;  184,500;15699,458;85,07403
 955,99;13700,600;  518,500;15974,458;85,28814
 956,55;13505,500;  241,500;15960,458;84,38218
 957,10;13529,200;  143,500;16103,458;83,87052
 957,65;13870,400;  258,500;16382,458;84,42034
 958,20;14129,500;  314,500;17141,459;82,10040
 958,76;14707,700;  781,500;17504,459;83,27593
 959,31;14605,800;  659,500;17491,459;82,85607
 959,86;13849,400; -321,500;16705,459;83,22626
 960,41;14295,100;   11,500;17110,459;83,53491
 960,96;18223,699; 3723,500;21152,459;83,19601
 961,52;14634,100; -244,500;17573,459;83,50339
 962,07;15858,100;  714,500;18543,459;84,93822
 962,62;15939,000;  655,500;18678,459;84,80017
 963,17;15581,600;  328,500;18358,459;84,59864
 963,72;14849,300; -287,500;17835,459;83,52278
 964,27;15427,700;  606,500;18096,459;84,74119
 964,83;14504,200; -466,500;17199,459;84,74321
 965,38;15073,400;  -79,500;17458,459;86,40059
 965,93;15647,300;  288,500;17928,459;87,06823
 966,48;15807,600;  254,500;17949,459;87,89565
 967,03;16496,600; 1035,500;18369,459;89,19543
 967,58;16073,700;  721,500;18211,459;87,77722
 968,13;15508,500;  472,500;17888,459;86,33461
 968,69;17239,900; 2538,500;19739,459;85,46849
 969,24;14905,600;  -28,500;17338,459;85,99145
 969,79;14612,500; -391,500;16858,459;86,97992
 970,34;15206,700;   15,500;17167,459;88,56831
 970,89;15860,600;  686,500;17605,459;89,68696
 971,44;15264,500;   29,500;17051,459;89,50204
 971,99;16376,200; 1432,500;18150,459;89,38711
 972,54;15125,700;  350,500;16908,459;89,23322
 973,09;14030,200; -467,500;16189,458;87,03690
 973,64;14393,400;  -46,500;16574,459;86,87766
 974,20;14958,700;  685,500;17199,459;86,43112
 974,75;16128,400; 1736,500;18144,459;87,71292
 975,30;15147,400;  391,500;17341,459;87,05567
 975,85;20554,301; 5946,500;22802,459;86,66253
 976,40;15209,400;  401,500;17672,459;85,73873
 976,95;14669,500;   53,500;17311,459;84,69136
 977,50;15057,000;  836,500;17911,459;83,28278
 978,05;15033,300;  706,500;17642,459;84,59397
 978,60;13684,300; -456,500;16240,458;84,69087
 979,15;15572,100; 1539,500;18377,459;83,33908
 979,70;14011,900; -110,500;16761,459;83,70338
 980,25;13961,000; -237,500;16935,459;82,67940
 980,80;14184,000;  -14,500;17184,459;82,55442
 981,35;14339,400;   62,500;17107,459;83,76025
 981,90;13984,300;  -63,500;17024,459;82,20876
 982,45;15106,100; 1377,500;17822,459;83,48212
 983,00;14745,100; 1361,500;17433,459;83,27298
 983,55;13704,700;  593,500;16683,459;81,48685
 984,10;13250,600;  103,500;16119,458;82,08750
 984,65;13684,400;  456,500;16675,459;81,55826
 985,20;14132,600;  697,500;17044,459;82,18715
 985,75;14314,700;  953,500;17202,459;82,22804
 986,30;13570,100;  239,500;16169,458;83,68258
 986,85;13950,300;  380,500;16379,458;84,81677
 987,40;14103,700;  814,500;16461,459;84,93152
 987,95;13238,500;   23,500;15739,458;84,08651
 988,50;13187,300;  473,500;15354,458;85,43670
 989,05;14087,600; 1082,500;16264,458;85,66154
 989,60;13672,600;  770,500;16099,458;84,16815
 990,15;13605,600;  643,500;15924,458;84,82518
 990,70;14248,100; 1170,500;16713,459;84,13842
 991,25;13157,000;  363,500;15600,458;83,96361
 991,79;12566,900; -208,500;14685,458;85,77572
 992,34;13783,200; 1149,500;15945,458;85,38616
 992,89;16001,400; 3618,500;18175,459;85,06516
 993,44;12520,800;  531,500;14660,458;84,85622
 993,99;11958,600;   22,500;13981,458;85,50853
 994,54;12135,200;  360,500;14336,458;84,24968
 995,09;11878,200;  183,500;14060,458;84,27423
 995,64;12557,500; 1009,500;14889,458;83,19910
 996,19;11311,800; -173,500;13459,458;84,24657
 996,74;12563,000; 1145,500;14756,458;83,88462
 997,28;11165,400;   68,500;13425,458;83,07955
 997,83;10500,200; -209,500;12619,458;83,48067
 998,38;10664,400;   15,500;12820,458;83,16232
 998,93;10717,400;  285,500;12937,458;82,45285
 999,48;10640,500;  127,500;13073,458;81,20681
1000,03;12712,900; 2120,500;15304,458;80,34310
1000,58;10734,500;   41,500;13151,458;81,56395
1001,12;11860,600; 1208,500;13983,458;83,38266
1001,67;11067,000;  437,500;13094,458;83,98147
1002,22;11641,800; 1110,500;13504,458;84,97124
1002,77;11433,200; 1144,500;13127,458;85,86111
1003,32;10245,700;   61,500;12049,458;84,95359
1003,86;11103,000; 1228,500;12799,458;85,33866
1004,41;10263,600;  435,500;12202,458;83,52286
1004,96; 9815,500;   61,500;11757,458;83,39633
1005,51;10109,200;  364,500;11931,458;84,24601
1006,06;11231,100; 1787,500;13010,458;84,14537
1006,60; 9447,700;   18,500;11045,458;85,51044
1007,15;10335,500; 1032,500;12238,458;83,01834
1007,70;10041,000;  787,500;11942,458;82,95414
1008,25; 9338,300;  318,500;11081,458;83,80410
1008,80; 8749,100; -377,500;10866,458;81,16892
1009,34;10056,800; 1141,500;11858,458;83,18872
1009,89; 9691,100;  588,500;11458,458;83,74089
1010,44; 9259,300;  150,500;11270,458;81,91398
1010,99; 9532,900;  425,500;11374,458;83,18052
1011,53; 8783,000; -262,500;10776,458;81,94161
1012,08; 8836,200; -344,500;10718,458;82,98594
1012,63; 9477,400;  360,500;11248,458;83,73379
1013,18; 9445,600;  315,500;11408,458;82,30537
1013,72; 9902,400;  489,500;11896,458;82,51894
1014,27; 9749,800;   47,500;11569,458;84,20704
1014,82;10886,700;  936,500;12914,458;83,07092
1015,36;10378,600;  208,500;12353,458;83,73927
1015,91;10450,900;  254,500;12285,458;84,75136
1016,46;10681,300;  379,500;12399,458;85,70579
1017,01;10199,900;   96,500;11838,458;86,04528
1017,55; 9867,100; -159,500;11346,458;87,14268
1018,10;10303,400;  496,500;11670,458;87,76568
1018,65;10107,700;  475,500;11478,458;87,54192
1019,19;10177,600;  796,500;11739,458;85,72727
1019,74;10009,600;  720,500;11410,458;86,89557
1020,29; 9963,500;  548,500;11522,458;85,79402
1020,83; 9663,700;  502,500;11246,458;85,26839
1021,38; 9801,500;  794,500;11586,458;83,46030
1021,93; 9067,100;  234,500;10665,458;84,67678
1022,47; 8883,300;  244,500;10538,458;83,92107
1023,02; 8242,400; -287,500; 9738,458;85,07816
1023,56; 9502,800; 1253,500;11056,458;84,15113
1024,11; 8016,400; -334,500; 9502,458;84,89311
1024,66; 8894,600;  553,500;10320,458;85,40120
1025,20; 8064,700; -341,500; 9346,458;86,76958
1025,75; 8527,300;  178,500; 9828,458;86,51644
1026,30; 8857,100;  471,500; 9895,458;88,98172
1026,84; 8104,200; -216,500; 9320,458;87,24690
1027,39; 8983,700;  793,500; 9975,458;89,19884
1027,93; 8050,600;   25,500; 9262,458;86,88034
1028,48; 8451,500;  427,500; 9611,458;87,36974
1029,03; 8705,400; 1128,500; 9649,458;88,92076
1029,57; 7766,500;  230,500; 8753,458;88,42001
1030,12; 7454,600;  159,500; 8623,458;86,19017
1030,66; 7523,100;  363,500; 8418,458;88,88439
1031,21; 7480,600;  452,500; 8903,458;83,16335
1031,75; 9431,700; 2524,500;10914,458;82,32699
1032,30; 7511,100;  655,500; 8910,458;83,04827
1032,84; 7531,400;  658,500; 8999,458;82,39941
1033,39; 6926,400;  242,500; 8114,458;84,90771
1033,94; 6450,300; -113,500; 7853,458;82,38777
1034,48; 7528,500; 1106,500; 8986,458;81,49790
1035,03; 7252,800;  802,500; 8722,458;81,44361
1035,57; 6474,800;  163,500; 7783,458;82,82591
1036,12; 6027,800; -158,500; 7410,458;81,73251
1036,66; 6782,300;  509,500; 7992,458;83,82780
1037,21; 5873,800; -244,500; 7052,458;83,84726
1037,75; 7474,200; 1547,500; 8564,458;84,46253
1038,30; 6428,000;  582,500; 7373,458;86,07769
1038,84; 5936,400;   73,500; 6724,458;88,15120
1039,39; 5540,500; -208,500; 6497,458;85,72973
1039,93; 6319,600;  790,500; 7315,458;84,73771
1040,48; 6010,800;  464,500; 7049,458;84,22680
1041,02; 6306,800;  873,500; 7580,458;81,00989
1041,57; 5970,600;  655,500; 7253,458;80,55674
1042,11; 6346,200; 1100,500; 7630,458;80,33283
1042,66; 5571,600;  315,500; 6873,458;80,14842
1043,20; 4903,000; -317,500; 6136,458;80,88834
1043,74; 5672,800;  543,500; 6819,458;81,72935
1044,29; 6170,900; 1296,500; 7154,458;83,20987
1044,83; 5402,900;  546,500; 6322,458;84,07955
1045,38; 4833,200;  158,500; 5834,458;82,35966
1045,92; 4305,900; -170,500; 5193,458;83,45329
1046,47; 4621,800;  172,500; 5527,458;83,08748
1047,01; 5146,300;  708,500; 6038,458;83,26143
1047,55; 4739,000;  485,500; 5528,458;84,34533
1048,10; 4087,800; -328,500; 4994,458;82,96702
1048,64; 4779,600;  523,500; 5764,458;81,20843
1049,19; 4650,500;  456,500; 5557,458;82,21984
1049,73; 4674,700;  590,500; 5584,458;81,78282
1050,27; 4317,200;  111,500; 5207,458;82,53011
1050,82; 4341,300;  254,500; 5250,458;81,80212
1051,36; 4089,000;  136,500; 4923,458;82,56809
1051,91; 4551,500;  652,500; 5488,458;80,62517
1052,45; 4429,100;  613,500; 5235,458;82,55375
1052,99; 3966,000;  130,500; 4859,458;81,10665
1053,54; 4286,900;  485,500; 5080,458;82,72980
1054,08; 3674,700; -235,500; 4541,458;81,85543
1054,62; 4352,900;  602,500; 5279,458;80,18886
1055,17; 4540,300;  869,500; 5479,458;79,62761
1055,71; 4183,500;  523,500; 5139,458;79,29014
1056,25; 6938,000; 3447,500; 7869,458;78,93561
1056,80; 4356,600;  840,500; 5212,458;80,42391
1057,34; 3146,300; -230,500; 3971,458;80,36253
1057,88; 3527,700;  277,500; 4333,458;80,13395
1058,43; 4027,600;  754,500; 4703,458;82,88515
1058,97; 3762,000;  434,500; 4390,458;84,11362
1059,51; 3880,400;  692,500; 4383,458;86,37052
1060,06; 4454,100; 1251,500; 5123,458;82,71267
1060,60; 3352,800;  323,500; 3796,458;87,22535
1061,14; 3256,600;  317,500; 3923,458;81,50677
1061,68; 3344,200;  469,500; 4012,458;81,13841
1062,23; 5556,300; 2776,500; 6221,458;80,69182
1062,77; 3390,300;  590,500; 3921,458;84,05389
1063,31; 3385,000;  578,500; 4077,458;80,20959
1063,85; 3787,800;  923,500; 4189,458;87,70167
1064,40; 2961,100;  167,500; 3411,458;86,11702
1064,94; 3020,500;  170,500; 3426,458;87,53183
1065,48; 3136,900;  405,500; 3674,458;83,55567
1066,02; 3668,900;  993,500; 4128,458;85,34084
1066,57; 2858,400;  256,500; 3342,458;84,31416
1067,11; 2828,300;  128,500; 3297,458;85,19519
1067,65; 3150,500;  603,500; 3472,458;88,77787
1068,19; 3164,800;  553,500; 3520,458;88,01270
1068,74; 2783,400;  129,500; 3117,458;88,81985
1069,28; 4591,900; 2038,500; 4882,458;89,78330
1069,82; 3068,000;  538,500; 3358,458;89,69991
1070,36; 2626,900;  186,500; 2949,458;88,32562
1070,90; 6356,200; 3915,500; 6659,458;88,94815
1071,45; 2648,800;  305,500; 3176,458;81,62083
1071,99; 2888,200;  689,500; 3218,458;86,94094
1072,53; 2618,700;  401,500; 3072,458;83,01140
1073,07; 2619,100;  485,500; 3158,458;79,82168
1073,61; 2352,000;  302,500; 2685,458;86,00654
1074,15; 2721,800;  631,500; 3079,458;85,38953
1074,70; 2773,600;  719,500; 3236,458;81,61042
1075,24; 2393,900;  427,500; 2891,458;79,80654
1075,78; 2103,800;   83,500; 2718,458;76,67294
1076,32; 2530,100;  513,500; 3000,458;81,08701
1076,86; 2253,400;  308,500; 2741,458;79,93972
1077,40; 3443,200; 1486,500; 3937,458;79,83408
1077,94; 3021,500; 1162,500; 3485,458;80,02727
1078,49; 1818,000;  -65,500; 2186,458;83,63832
1079,03; 2010,700;  213,500; 2441,458;80,66578
1079,57; 2532,100;  734,500; 2946,458;81,26736
1080,11; 2775,700; 1053,500; 3228,458;79,18313
1080,65; 2931,400; 1349,500; 3254,458;83,04118
1081,19; 4250,700; 2629,500; 4764,458;75,93591
1081,73; 1945,300;  355,500; 2472,458;75,09832
1082,27; 1901,800;  223,500; 2134,458;87,82505
1082,81; 1593,000;  -54,500; 1963,458;81,64192
1083,35; 2024,500;  319,500; 2376,458;82,88938
1083,89; 2132,400;  583,500; 2441,458;83,36570
1084,44; 3591,400; 1974,500; 3825,458;87,35475
1084,98; 2161,000;  644,500; 2440,458;84,43960
1085,52; 1845,500;  335,500; 2137,458;83,79772
1086,06; 1516,400;  -33,500; 1709,458;88,92352
1086,60; 1889,200;  294,500; 2184,458;84,37752
1087,14; 1536,200;    5,500; 1876,458;81,81368
1087,68; 2189,700;  680,500; 2399,458;87,79736
1088,22; 1926,000;  498,500; 2246,458;81,66671
1088,76; 2891,000; 1419,500; 3248,458;80,45564
1089,30; 1438,900;  -38,500; 1765,458;81,89768
1089,84; 1829,500;  343,500; 2227,458;78,87648
1090,38; 3051,300; 1594,500; 3349,458;83,01052
1090,92; 1705,800;  339,500; 1950,458;84,81287
1091,46; 2033,300;  648,500; 2297,458;83,98030
1092,00; 2078,400;  763,500; 2296,458;85,77532
1092,54; 1616,200;  336,500; 1809,458;86,87957
1093,08; 2416,300; 1051,500; 2688,458;83,37415
1093,62; 1614,500;  314,500; 1930,458;80,44762
1094,16; 1081,900; -109,500; 1282,458;85,59164
1094,70; 1139,600; -163,500; 1421,458;82,21667
1095,24; 1595,700;  424,500; 1942,458;77,15626
1095,78; 1587,900;  392,500; 1809,458;84,36381
1096,32; 1410,300;  147,500; 1772,458;77,71276
1096,86; 1619,200;  459,500; 1890,458;81,04358
1097,40; 1745,000;  632,500; 2162,458;72,71440
1097,93; 2952,500; 1864,500; 3122,458;86,48936
1098,47; 1840,900;  670,500; 2014,458;87,08603
1099,01; 2123,200; 1066,500; 2435,458;77,19008
1099,55; 1757,800;  694,500; 1984,458;82,42902
1100,09; 1115,300;   -7,500; 1308,458;85,32185

