
Integration time [ms]: 4000,000
Averaging Nr. [scans]: 30
Smoothing Nr. [pixels]: 0
Data measured with spectrometer [name]: 1803151U1
Wave   ;Sample   ;Dark     ;Reference;Transmittance
[nm]   ;[counts] ;[counts] ;[counts] ;[%]

 195,95; 2445,444; 2450,809; 2514,086;-8,47808
 196,55; 2147,422; 2155,473; 2207,978;-15,33393
 197,15; 1765,194; 1825,653; 1797,723; 0,00000
 197,76; 3186,237; 3364,879; 3360,889; 0,00000
 198,36; 1842,936; 1886,433; 1945,838;-73,22155
 198,96; 2905,369; 3138,853; 3019,463; 0,00000
 199,56; 2252,812; 2475,112; 2368,487; 0,00000
 200,16; 1890,011; 1934,011; 1881,020; 0,00000
 200,76; 1522,745; 1629,734; 1574,046; 0,00000
 201,36; 3368,493; 3644,140; 3521,958; 0,00000
 201,96; 1601,034; 1650,171; 1633,621; 0,00000
 202,56; 2240,849; 2318,435; 2251,883; 0,00000
 203,16; 2408,926; 2564,795; 2494,373; 0,00000
 203,76; 1873,284; 1954,839; 1908,750; 0,00000
 204,36; 1546,146; 1733,936; 1529,979; 0,00000
 204,96; 2248,253; 2295,244; 2327,618;-145,15392
 205,56; 1943,449; 2137,645; 2037,247; 0,00000
 206,16; 1567,521; 1616,372; 1511,511; 0,00000
 206,76; 1937,416; 2009,469; 1932,740; 0,00000
 207,36; 2728,635; 2789,130; 2790,438;-4625,48068
 207,96; 2692,958; 2751,425; 2693,363; 0,00000
 208,56; 2302,295; 2467,923; 2308,266; 0,00000
 209,16; 1864,700; 1894,205; 1953,478;-49,77604
 209,76; 1490,854; 1638,169; 1583,577; 0,00000
 210,36; 1694,289; 1838,196; 1811,003; 0,00000
 210,96; 2033,381; 2184,963; 2096,406; 0,00000
 211,56; 1999,161; 2134,099; 2082,774; 0,00000
 212,16; 4327,937; 4485,535; 4481,305; 0,00000
 212,76; 1782,849; 1873,645; 1827,247; 0,00000
 213,36; 2578,555; 2567,094; 2680,536;10,10251
 213,96; 2247,061; 2310,099; 2403,774;-67,29443
 214,56; 2012,574; 2149,512; 2055,117; 0,00000
 215,16; 1935,416; 2038,469; 2012,740; 0,00000
 215,76; 3843,818; 3965,839; 4066,750;-120,92004
 216,36; 1482,779; 1475,213; 1579,954; 7,22291
 216,96; 3247,556; 3374,743; 3320,521; 0,00000
 217,56; 1799,854; 1758,271; 1805,044;88,90510
 218,16; 2285,207; 2388,655; 2447,767;-175,00134
 218,75; 1565,486; 1641,143; 1726,151;-89,00032
 219,35; 1718,508; 1853,337; 1773,609; 0,00000
 219,95; 2331,187; 2485,548; 2410,018; 0,00000
 220,55; 2084,343; 2095,363; 2152,035;-19,44522
 221,15; 2958,530; 3060,429; 3111,601;-199,13120
 221,75; 1892,733; 1926,658; 1953,960;-124,25513
 222,35; 2225,433; 2344,002; 2272,545; 0,00000
 222,95; 3198,568; 3234,306; 3297,945;-56,15687
 223,55; 2998,833; 3109,103; 3183,011;-149,19862
 224,15; 2491,822; 2604,574; 2468,444; 0,00000
 224,75; 2195,785; 2379,596; 2266,633; 0,00000
 225,35; 1882,063; 2104,504; 1976,641; 0,00000
 225,95; 2657,680; 2835,240; 2776,380; 0,00000
 226,55; 1811,430; 1858,328; 1869,134;-433,99681
 227,15; 1870,269; 1872,231; 1939,905;-2,89963
 227,75; 2975,768; 3047,306; 2994,945; 0,00000
 228,34; 1999,839; 2090,662; 2093,198;-3581,18502
 228,94; 2494,521; 2687,169; 2521,577; 0,00000
 229,54; 1771,605; 1972,804; 1855,849; 0,00000
 230,14; 2204,836; 2290,055; 2239,397; 0,00000
 230,74; 1774,333; 1934,901; 1915,078; 0,00000
 231,34; 1868,963; 1948,949; 1956,692;-1033,00752
 231,94; 2313,445; 2452,835; 2476,512;-588,70111
 232,54; 1750,798; 1919,976; 1871,119; 0,00000
 233,14; 2297,715; 2430,888; 2317,365; 0,00000
 233,74; 1808,568; 1892,751; 1849,996; 0,00000
 234,33; 1795,303; 1926,055; 1981,397;-236,26197
 234,93; 1833,628; 1868,477; 1937,215;-50,69952
 235,53; 1869,036; 2020,156; 1837,864; 0,00000
 236,13; 2166,005; 2281,007; 2160,782; 0,00000
 236,73; 2185,597; 2435,672; 2176,718; 0,00000
 237,33; 2140,091; 2203,702; 2242,337;-164,64247
 237,93; 3302,790; 3450,121; 3552,962;-143,26000
 238,53; 1867,478; 1998,389; 1962,461; 0,00000
 239,12; 3671,014; 3828,341; 3761,847; 0,00000
 239,72; 2974,738; 3117,905; 3127,315;-1521,40930
 240,32; 1306,158; 1490,391; 1230,506; 0,00000
 240,92; 1385,241; 1423,134; 1487,675;-58,71195
 241,52; 1742,905; 1843,007; 1747,782; 0,00000
 242,12; 2615,923; 2652,297; 2634,470; 0,00000
 242,72; 1706,495; 1765,200; 1704,241; 0,00000
 243,31; 1739,032; 1895,077; 1920,585;-611,73684
 243,91; 2160,886; 2311,143; 2297,151; 0,00000
 244,51; 1428,650; 1510,914; 1447,791; 0,00000
 245,11; 4107,042; 4236,060; 4215,635; 0,00000
 245,71; 2694,350; 2968,292; 2825,232; 0,00000
 246,31; 3157,047; 3308,963; 3255,406; 0,00000
 246,90; 3488,317; 3674,914; 3758,791;-222,46565
 247,50; 1682,733; 1868,901; 1654,078; 0,00000
 248,10; 2100,274; 2191,857; 2205,701;-661,53249
 248,70; 1250,250; 1414,394; 1428,699;-1147,43022
 249,30; 2078,038; 2135,703; 2095,382; 0,00000
 249,90; 1656,150; 1802,536; 1679,350; 0,00000
 250,49; 1889,708; 2119,681; 1983,193; 0,00000
 251,09; 1767,897; 1940,051; 1870,159; 0,00000
 251,69; 2265,724; 2313,046; 2316,922;-1221,05329
 252,29; 2193,684; 2316,015; 2151,258; 0,00000
 252,89; 2044,547; 2214,483; 2059,497; 0,00000
 253,48; 1972,550; 2109,914; 1942,791; 0,00000
 254,08; 1291,587; 1368,169; 1331,577; 0,00000
 254,68; 1211,615; 1305,888; 1212,365; 0,00000
 255,28; 2011,450; 2163,813; 2094,324; 0,00000
 255,88; 2008,521; 2197,169; 2013,577; 0,00000
 256,47; 1310,723; 1415,121; 1240,962; 0,00000
 257,07; 1911,839; 2012,108; 2048,249;-277,43379
 257,67; 2439,005; 2521,662; 2492,198; 0,00000
 258,27; 2071,398; 2251,875; 2206,652; 0,00000
 258,86; 2565,940; 2728,411; 2647,650; 0,00000
 259,46; 1726,313; 1788,483; 1800,497;-517,45850
 260,06; 1893,836; 1959,677; 1936,956; 0,00000
 260,66; 1920,370; 2085,500; 1972,448; 0,00000
 261,26; 3077,125; 3229,971; 3235,881;-2586,47800
 261,85; 1232,944; 1317,633; 1345,579;-303,04016
 262,45; 1991,221; 2017,993; 2117,069;-27,02180
 263,05; 1916,833; 1952,002; 1948,545; 0,00000
 263,65; 1192,453; 1344,487; 1290,735; 0,00000
 264,24; 2749,158; 2755,425; 2960,363;-3,05780
 264,84; 2287,302; 2360,954; 2280,930; 0,00000
 265,44; 2466,984; 2522,839; 2462,750; 0,00000
 266,04; 1587,713; 1819,483; 1641,497; 0,00000
 266,63; 1708,316; 1752,191; 1786,765;-126,90216
 267,23; 1134,492; 1286,492; 1169,973; 0,00000
 267,83; 1947,203; 1934,156; 2012,864;16,57651
 268,42; 1548,523; 1653,020; 1591,495; 0,00000
 269,02; 2887,618; 3109,461; 2986,309; 0,00000
 269,62; 1970,316; 2074,090; 1950,298; 0,00000
 270,22; 1104,234; 1262,826; 1138,037; 0,00000
 270,81; 1978,306; 2007,209; 2100,716;-30,90965
 271,41; 1896,628; 2063,267; 1942,850; 0,00000
 272,01; 1975,276; 2070,985; 2053,594; 0,00000
 272,61; 1884,928; 2087,200; 1976,241; 0,00000
 273,20; 2411,549; 2558,333; 2526,416; 0,00000
 273,80; 1551,907; 1712,756; 1522,234; 0,00000
 274,40; 1346,606; 1431,729; 1405,808; 0,00000
 274,99; 1860,596; 2092,470; 2081,784; 0,00000
 275,59; 2210,625; 2390,769; 2270,947; 0,00000
 276,19; 2591,908; 2680,580; 2665,727; 0,00000
 276,78; 1957,344; 1944,187; 2020,528;17,23440
 277,38; 1510,451; 1662,218; 1613,192; 0,00000
 277,98; 1694,398; 1789,597; 1688,677; 0,00000
 278,57; 1491,861; 1613,200; 1543,241; 0,00000
 279,17; 1830,615; 1920,165; 1938,339;-492,72924
 279,77; 4070,958; 4306,147; 4342,389;-648,95516
 280,37; 1737,068; 1806,272; 1816,088;-704,98408
 280,96; 1468,378; 1596,633; 1512,579; 0,00000
 281,56; 1162,244; 1301,809; 1205,086; 0,00000
 282,16; 1429,153; 1593,589; 1473,202; 0,00000
 282,75; 1312,321; 1351,548; 1430,018;-49,98950
 283,35; 1686,894; 1724,443; 1718,358; 0,00000
 283,95; 1732,132; 1837,523; 1837,636; 0,00000
 284,54; 1549,227; 1732,518; 1804,399;-254,99451
 285,14; 1852,011; 2002,531; 1979,112; 0,00000
 285,73; 2157,296; 2242,848; 2297,226;-157,32995
 286,33; 1455,199; 1551,624; 1521,103; 0,00000
 286,93; 1526,577; 1624,531; 1599,112; 0,00000
 287,52; 1963,639; 2087,351; 2025,367; 0,00000
 288,12; 2226,458; 2368,289; 2323,039; 0,00000
 288,72; 2365,010; 2540,228; 2555,711;-1131,65248
 289,31; 2200,889; 2305,540; 2156,587; 0,00000
 289,91; 2907,141; 2981,756; 2872,234; 0,00000
 290,51; 1787,766; 1677,901; 1918,078;45,74332
 291,10; 2166,457; 2291,945; 2340,455;-258,68563
 291,70; 1413,725; 1561,113; 1503,531; 0,00000
 292,29; 2030,987; 2157,068; 2029,110; 0,00000
 292,89; 1633,348; 1690,888; 1683,365; 0,00000
 293,49; 2057,686; 2264,589; 2068,202; 0,00000
 294,08; 1076,496; 1265,571; 1137,251; 0,00000
 294,68; 1402,961; 1502,721; 1521,333;-535,99879
 295,28; 1793,491; 1825,769; 1832,947;-449,65819
 295,87; 1638,985; 1701,042; 1659,684; 0,00000
 296,47; 1747,776; 1923,782; 1882,660; 0,00000
 297,06; 2042,486; 2198,765; 2112,709; 0,00000
 297,66; 1116,481; 1120,408; 1287,457;-2,35082
 298,26;  864,354; 1080,514;  935,161; 0,00000
 298,85; 1982,915; 2209,787; 2051,898; 0,00000
 299,45; 1638,065; 1706,077; 1698,585; 0,00000
 300,04; 1628,181; 1700,963; 1647,406; 0,00000
 300,64; 1714,610; 1752,363; 1876,035;-30,52677
 301,23; 2014,361; 2053,443; 2027,358; 0,00000
 301,83; 1756,297; 1890,949; 1841,692; 0,00000
 302,43; 1839,505; 2008,527; 1866,874; 0,00000
 303,02; 1456,117; 1560,394; 1634,699;-140,33537
 303,62; 1591,141; 1619,958; 1653,168;-86,77174
 304,21; 2249,050; 2301,570; 2346,207;-117,66038
 304,81; 2312,697; 2363,051; 2414,159;-98,52298
 305,40; 1738,804; 1808,359; 1850,798;-163,89270
 306,00; 1678,571; 1819,703; 1767,382; 0,00000
 306,59; 1902,023; 1944,121; 1926,962; 0,00000
 307,19; 1243,154; 1283,791; 1297,136;-304,52163
 307,79; 1655,671; 1758,980; 1799,356;-255,86921
 308,38; 1742,777; 1837,120; 1850,918;-683,73424
 308,98; 1197,003; 1304,055; 1275,397; 0,00000
 309,57; 1243,925; 1271,391; 1210,506; 0,00000
 310,17; 1961,053; 2107,521; 2071,488; 0,00000
 310,76; 2240,799; 2428,076; 2445,481;-1076,00926
 311,36; 1621,795; 1768,788; 1824,942;-261,76541
 311,95; 1287,826; 1378,073; 1343,348; 0,00000
 312,55; 2994,327; 3226,863; 3070,983; 0,00000
 313,14; 1011,303;  938,399; 1064,981;57,59401
 313,74; 1172,051; 1252,738; 1196,283; 0,00000
 314,33; 1954,988; 2063,094; 2075,536;-868,90465
 314,93; 2117,295; 2188,923; 2156,266; 0,00000
 315,52; 1937,167; 2025,725; 2042,570;-525,71814
 316,12; 1605,427; 1656,998; 1657,307; 0,00000
 316,71; 5136,614; 5239,584; 5407,964;-61,15334
 317,31;  841,359;  942,694;  825,906; 0,00000
 317,90; 1331,541; 1427,479; 1395,260; 0,00000
 318,50; 1166,051; 1262,738; 1199,283; 0,00000
 319,09; 1030,258; 1098,046; 1119,922;-309,88315
 319,69; 1662,719; 1815,663; 1664,243; 0,00000
 320,28; 1664,325; 1666,870; 1715,414;-5,24252
 320,88; 1476,722; 1544,196; 1649,003;-64,37878
 321,47; 1132,817; 1254,738; 1125,283; 0,00000
 322,07; 1260,805; 1298,628; 1313,341;-257,07305
 322,66; 1259,943; 1255,883; 1228,127; 0,00000
 323,26; 1261,414; 1225,341; 1272,847;75,93404
 323,85; 1611,393; 1723,694; 1661,906; 0,00000
 324,45;  811,744;  844,809;  938,086;-35,44776
 325,04; 1166,133; 1270,901; 1230,078; 0,00000
 325,64; 1586,904; 1663,602; 1588,915; 0,00000
 326,23; 1330,052; 1505,765; 1385,709; 0,00000
 326,83; 1920,924; 1999,945; 2009,455;-830,94578
 327,42; 1547,121; 1619,514; 1741,161;-59,51060
 328,01; 1509,012; 1636,835; 1567,512; 0,00000
 328,61;  750,027;  731,518;  780,399;37,86455
 329,20; 2004,204; 2068,980; 2097,356;-228,27890
 329,80;  826,090;  938,398;  824,937; 0,00000
 330,39; 1456,186; 1549,765; 1513,709; 0,00000
 330,99; 1062,248; 1189,787; 1171,898; 0,00000
 331,58; 1152,565; 1231,800; 1275,611;-180,85433
 332,17; 1841,676; 1989,883; 1884,127; 0,00000
 332,77; 2501,684; 2623,015; 2525,258; 0,00000
 333,36; 1348,825; 1551,147; 1318,388; 0,00000
 333,96;  749,720;  796,690;  797,669; 0,00000
 334,55;  969,479; 1092,213; 1083,954; 0,00000
 335,15; 1070,758; 1146,870; 1191,414;-170,86924
 335,74; 1253,856; 1335,020; 1250,495; 0,00000
 336,33; 1117,399; 1220,800; 1133,611; 0,00000
 336,93; 1406,740; 1423,932; 1418,742; 0,00000
 337,52; 1437,310; 1653,809; 1541,086; 0,00000
 338,12; 1440,891; 1596,945; 1533,455; 0,00000
 338,71; 1405,235; 1446,853; 1561,463;-36,31188
 339,30; 2035,061; 2095,822; 2173,799;-77,92067
 339,90; 1254,747; 1379,206; 1331,523; 0,00000
 340,49; 1336,034; 1502,927; 1376,504; 0,00000
 341,08; 1414,989; 1547,540; 1362,587; 0,00000
 341,68; 1308,399; 1474,800; 1268,611; 0,00000
 342,27; 1853,109; 2069,883; 1870,127; 0,00000
 342,87; 1522,847; 1603,584; 1563,964; 0,00000
 343,46; 2013,228; 2121,200; 2076,241; 0,00000
 344,05; 1632,626; 1779,795; 1737,373; 0,00000
 344,65; 1938,995; 2005,200; 2031,241;-254,24050
 345,24; 1839,073; 1951,108; 1983,249;-348,56914
 345,83; 2063,574; 2162,235; 2263,142;-97,77409
 346,43; 1059,848; 1111,888; 1119,365;-696,00007
 347,02;  889,619;  944,244;  910,618; 0,00000
 347,61;  987,006; 1147,351;  934,367; 0,00000
 348,21; 2079,590; 2163,020; 2206,495;-191,90121
 348,80;  699,435;  808,853;  826,463;-621,31083
 349,40; 1010,133; 1161,901; 1076,078; 0,00000
 349,99; 1107,915; 1188,165; 1230,339;-190,28197
 350,58; 1414,400; 1633,347; 1480,129; 0,00000
 351,18; 1364,688; 1390,993; 1449,069;-45,29488
 351,77; 1106,868; 1139,751; 1232,996;-35,26536
 352,36; 1001,487; 1017,169; 1110,577;-16,78893
 352,96;  663,395;  674,024;  732,733;-18,10429
 353,55; 1738,865; 1870,421; 1813,170; 0,00000
 354,14; 1290,395; 1374,822; 1339,799; 0,00000
 354,73;  667,043;  683,985;  663,594; 0,00000
 355,33; 1022,165; 1030,077; 1085,585;-14,25331
 355,92; 1356,270; 1366,602; 1378,915;-83,90586
 356,51;  707,720;  772,413;  903,694;-49,27736
 357,11;  929,056;  988,364; 1067,080;-75,34447
 357,70; 1417,088; 1512,959; 1535,212;-430,82805
 358,29; 1049,799; 1112,624; 1109,103; 0,00000
 358,89; 1018,791; 1084,567; 1080,013; 0,00000
 359,48; 1030,833; 1128,867; 1083,221; 0,00000
 360,07; 1855,599; 1911,421; 1990,170;-70,88768
 360,66; 1350,577; 1439,673; 1478,762;-227,93262
 361,26; 2075,789; 2206,405; 2279,263;-179,27500
 361,85; 1248,803; 1240,744; 1282,565;19,27076
 362,44; 1419,183; 1459,022; 1502,584;-91,45463
 363,04; 1042,029;  958,057; 1092,486;62,46594
 363,63; 1082,754; 1089,723; 1081,421; 0,00000
 364,22; 1464,916; 1571,644; 1570,143; 0,00000
 364,81; 1201,848; 1152,340; 1254,742;48,34666
 365,41; 1842,597; 1829,327; 1983,029; 8,63383
 366,00;  742,015;  587,441;  833,209;62,89428
 366,59; 1774,138; 1674,013; 1840,109;60,28131
 367,18; 3144,531; 3150,908; 3332,404;-3,51314
 367,78; 1290,970; 1179,189; 1384,616;54,41401
 368,37; 1167,554; 1052,480; 1202,304;76,80632
 368,96;  958,117;  869,502;  991,492;72,64073
 369,55; 1678,642; 1536,748; 1870,803;42,47628
 370,15; 1418,500; 1478,590; 1433,246; 0,00000
 370,74; 2000,021; 2084,757; 2151,278;-127,38255
 371,33; 1657,814; 1610,206; 1784,523;27,31111
 371,92; 2282,825; 2381,458; 2432,115;-194,70394
 372,51; 1639,756; 1757,506; 1829,730;-163,03496
 373,11; 1096,740; 1072,141; 1165,002;26,48991
 373,70; 1015,753; 1069,075; 1052,437; 0,00000
 374,29;  945,134;  998,758; 1035,323;-146,65651
 374,88; 1364,499; 1351,387; 1407,313;23,44463
 375,48; 1286,274; 1273,343; 1332,936;21,69839
 376,07; 1413,994; 1321,964; 1625,450;30,32434
 376,66; 1004,517;  951,704; 1049,426;54,04443
 377,25;  621,937;  670,467;  686,591;-300,97244
 377,84; 2104,288; 2114,480; 2208,304;-10,86301
 378,44; 1766,003; 1785,264; 1844,657;-32,43078
 379,03;  917,086;  865,731; 1002,852;37,45221
 379,62; 1002,196; 1038,436; 1003,927; 0,00000
 380,21;  656,148;  648,273;  786,133; 5,71207
 380,80; 1081,727; 1166,308; 1121,034; 0,00000
 381,39;  536,227;  527,308;  635,034; 8,27958
 381,99; 1156,834; 1111,515; 1248,205;33,15455
 382,58; 1731,380; 1614,726; 1956,615;34,12040
 383,17; 2078,342; 2055,647; 2063,336;295,15161
 383,76; 2248,003; 2269,021; 2382,540;-18,51505
 384,35; 1974,622; 1964,783; 2174,705; 4,68687
 384,94; 2504,138; 2542,871; 2750,458;-18,65865
 385,54; 2042,466; 2040,489; 2107,779; 2,93843
 386,13;  962,163;  916,159; 1079,953;28,08679
 386,72; 1720,783; 1717,401; 1760,026; 7,93507
 387,31; 1248,537; 1279,467; 1196,591; 0,00000
 387,90;  947,617;  970,326; 1011,985;-54,51005
 388,49;  947,553; 1041,277;  954,370; 0,00000
 389,08; 2415,103; 2515,264; 2578,657;-158,00091
 389,68; 1389,356; 1481,607; 1357,197; 0,00000
 390,27; 1293,706; 1278,695; 1451,951; 8,66379
 390,86; 1284,979; 1302,625; 1364,148;-28,68129
 391,45; 1283,241; 1247,722; 1223,377; 0,00000
 392,04; 2015,308; 2090,924; 2065,311; 0,00000
 392,63;  596,949;  577,678;  708,000;14,78756
 393,22;  981,446;  980,625; 1062,148; 1,00729
 393,81;  896,763;  846,915;  947,835;49,39352
 394,41;  906,810;  916,295;  955,321;-24,30427
 395,00;  913,980;  966,348; 1081,173;-45,60665
 395,59;  444,207;  373,621;  425,910;134,99163
 396,18; 1100,034; 1117,515; 1087,205; 0,00000
 396,77; 1207,912; 1142,902; 1283,122;46,36305
 397,36; 2766,713; 2864,104; 2868,056;-2464,71424
 397,95; 1260,860; 1240,761; 1339,516;20,35182
 398,54;  784,758;  805,735;  919,090;-18,50541
 399,13; 1574,562; 1625,889; 1706,409;-63,74464
 399,72;  483,666;  514,489;  562,779;-63,82750
 400,31;  949,063;  962,057; 1002,486;-32,14267
 400,90; 1297,403; 1348,021; 1315,540; 0,00000
 401,50; 1360,045; 1469,423; 1427,214; 0,00000
 402,09; 1601,338; 1609,669; 1782,525;-4,81980
 402,68; 1467,794; 1466,308; 1492,034; 5,77612
 403,27;  843,834;  882,515;  892,205;-399,16356
 403,86;  858,145;  844,599;  951,722;12,64524
 404,45;  650,748;  623,854;  719,508;28,11672
 405,04; 1735,635; 1813,995; 1902,114;-88,92491
 405,63; 1191,745; 1186,977; 1317,163; 3,66222
 406,22;  814,210;  830,396;  826,788; 0,00000
 406,81; 1248,321; 1293,581; 1295,771;-2066,70569
 407,40; 1495,047; 1597,307; 1591,990; 0,00000
 407,99; 1761,928; 1751,409; 1825,501;14,19670
 408,58; 1693,140; 1674,418; 1797,976;15,15183
 409,17; 2001,244; 2048,775; 2195,229;-32,45435
 409,76; 1931,964; 2057,361; 1936,886; 0,00000
 410,35;  853,633;  867,968;  965,688;-14,66964
 410,94; 1268,479; 1304,625; 1338,148;-107,82396
 411,53; 1932,334; 2006,238; 1993,231; 0,00000
 412,12; 1001,428;  960,166; 1030,384;58,76307
 412,71;  844,933;  839,211;  866,805;20,73494
 413,30;  820,655;  830,783;  891,705;-16,62465
 413,89;  607,437;  619,467;  660,591;-29,25223
 414,48;  685,285;  650,805;  652,893;1651,58169
 415,07; 1428,623; 1387,263; 1556,613;24,42266
 415,66;  899,424;  889,012;  949,064;17,33881
 416,25; 1927,966; 1938,867; 2068,221;-8,42728
 416,84; 2344,967; 2356,792; 2443,180;-13,68852
 417,43;  920,205; 1000,871;  994,458; 0,00000
 418,02; 1263,934; 1366,515; 1333,205; 0,00000
 418,61;  856,271;  871,669; 1046,525;-8,80612
 419,20;  864,911;  760,775;  815,229;191,23433
 419,79;  780,431;  813,739;  809,328; 0,00000
 420,38; 1161,652; 1135,629; 1286,385;17,26139
 420,97; 2002,803; 2033,122; 2028,007; 0,00000
 421,56;  986,206; 1002,973; 1066,925;-26,21789
 422,15;  849,236;  777,541;  998,632;32,42761
 422,74; 2109,994; 2079,409; 2253,501;17,56832
 423,33; 1157,612; 1061,078; 1265,630;47,19276
 423,92; 1611,059; 1737,660; 1600,049; 0,00000
 424,51; 1141,763; 1114,915; 1213,835;27,14108
 425,10; 1089,818; 1001,805; 1138,893;64,20161
 425,69;  835,453;  786,933;  960,786;27,90875
 426,28;  877,652;  858,285; 1005,801;13,12856
 426,87; 1096,078; 1050,457; 1188,071;33,15196
 427,46; 2766,213; 2805,281; 2888,563;-46,90980
 428,04;  614,858;  578,289;  738,039;22,89094
 428,63; 1220,097; 1231,118; 1352,769;-9,05900
 429,22;  813,340;  833,898;  869,885;-57,12602
 429,81; 1279,433; 1240,245; 1360,662;32,54316
 430,40;  454,398;  390,320;  515,703;51,10605
 430,99; 1528,403; 1462,021; 1684,540;29,83201
 431,58; 2593,279; 2690,801; 2718,655;-350,11614
 432,17; 2273,907; 2382,100; 2446,818;-167,17480
 432,76; 1546,683; 1591,157; 1655,908;-68,68518
 433,35; 1639,322; 1694,061; 1716,679;-242,00852
 433,94; 2249,391; 2445,911; 2348,598; 0,00000
 434,52;  390,641;  327,377;  388,793;103,00866
 435,11; 1157,046; 1120,760; 1179,472;61,80429
 435,70;  829,332;  783,144;  867,195;54,95250
 436,29;  451,053;  367,933;  562,786;42,65791
 436,88; 1543,406; 1589,797; 1571,418; 0,00000
 437,47; 1196,199; 1201,421; 1243,170;-12,51020
 438,06; 1108,610; 1137,329; 1217,178;-35,96673
 438,65; 3990,349; 4082,678; 4084,000;-6982,60709
 439,23;  881,157;  846,810;  909,131;55,11358
 439,82; 1898,055; 1833,581; 2026,771;33,37325
 440,41; 1268,300; 1172,448; 1402,596;41,64817
 441,00; 1306,691; 1281,911; 1442,598;15,42120
 441,59; 1661,695; 1730,612; 1709,435; 0,00000
 442,18; 1112,762; 1084,990; 1196,876;24,82170
 442,77;  784,787;  740,514;  854,161;38,95711
 443,35; 2127,468; 2135,373; 2287,555;-5,19446
 443,94; 1699,994; 1753,863; 1795,983;-127,89269
 444,53;  752,785;  764,805;  742,893; 0,00000
 445,12; 1579,518; 1606,083; 1648,867;-62,08951
 445,71; 1581,651; 1567,360; 1646,842;17,98000
 446,30; 2211,196; 2202,814; 2301,368; 8,50505
 446,88;  791,242;  638,025;  916,778;54,96516
 447,47; 1530,198; 1441,942; 1717,261;32,05596
 448,06;  829,365;  692,421;  859,170;82,12619
 448,65; 1576,776; 1446,849; 1701,270;51,06767
 449,24; 2033,340; 1916,797; 2106,418;61,46100
 449,82;  930,243; 1007,849; 1055,270;-163,65630
 450,41; 1172,233; 1171,691; 1215,713; 1,23229
 451,00; 1222,753; 1150,933; 1278,786;56,17402
 451,59;  460,563;  355,193;  546,810;54,99005
 452,18; 1026,667;  900,069; 1068,154;75,31746
 452,76;  794,000;  740,968;  891,688;35,18561
 453,35; 1148,166; 1140,867; 1265,221; 5,86960
 453,94;  990,468;  931,096; 1068,581;43,18482
 454,53; 1177,103; 1111,122; 1207,007;68,81307
 455,12; 1564,070; 1594,845; 1672,032;-39,87029
 455,70;  818,061;  735,964;  860,450;65,94858
 456,29;  961,537;  974,325;  999,940;-49,91899
 456,88; 1988,153; 1909,210; 2152,760;32,41328
 457,47; 2448,331; 2359,395; 2637,743;31,95116
 458,05; 1235,301; 1106,995; 1312,114;62,55231
 458,64; 1161,137; 1043,501; 1302,448;45,42858
 459,23;  748,703;  704,021;  730,540;168,49097
 459,82; 1923,075; 1834,201; 1903,285;128,64557
 460,40; 1281,333; 1150,867; 1377,221;57,63796
 460,99; 1129,214; 1081,584; 1135,964;87,58690
 461,58; 1486,647; 1391,206; 1680,523;32,98848
 462,17;  386,842;  269,025;  351,777;142,37290
 462,75;  775,684;  658,083;  812,867;75,97745
 463,34; 1193,199; 1149,144; 1442,195;15,03315
 463,93; 1295,657; 1143,911; 1287,598;105,60939
 464,52; 1446,053; 1309,487; 1454,735;94,02237
 465,10; 1162,542; 1017,748; 1233,803;67,01728
 465,69; 1803,894; 1644,619; 2013,866;43,13497
 466,28;  573,126;  336,417;  685,932;67,72505
 466,86; 1645,401; 1529,171; 1717,621;61,67660
 467,45;  459,266;  323,867;  527,221;66,58301
 468,04;  459,178;  280,078;  447,630;106,89257
 468,63; 1251,145; 1016,977; 1325,163;75,98258
 469,21; 1434,784; 1275,461; 1526,309;63,51393
 469,80; 1899,109; 1820,025; 1939,777;66,03915
 470,39; 1614,663; 1465,672; 1681,718;68,96285
 470,97;  947,795;  802,990; 1068,876;54,46146
 471,56;  710,934;  503,792;  802,180;69,42028
 472,15; 1395,882; 1217,509; 1505,923;61,84587
 472,73; 1084,255;  915,061; 1254,679;49,81901
 473,32; 1643,793; 1414,417; 1778,932;62,92633
 473,91;  609,763;  359,294;  646,277;87,27685
 474,49; 1952,758; 1727,289; 2058,039;68,16889
 475,08;  803,576;  532,505;  996,686;58,39769
 475,67; 1230,380;  953,382; 1304,030;78,99585
 476,25; 2006,321; 1812,514; 2096,161;68,32675
 476,84;  891,025;  623,391;  950,506;81,81644
 477,43; 1454,559; 1217,039; 1509,491;81,21704
 478,01; 1637,274; 1365,100; 1755,818;69,65994
 478,60;  587,920;  374,413;  681,694;69,48276
 479,19; 1303,735; 1095,575; 1423,489;63,48021
 479,77; 1029,302;  749,197; 1235,047;57,65255
 480,36;  970,326;  598,316; 1058,465;80,84549
 480,94;  995,300;  774,448; 1083,596;71,43909
 481,53; 1466,756; 1258,162; 1602,146;60,64055
 482,12; 1515,089; 1245,817; 1620,562;71,85468
 482,70; 1220,673;  874,452; 1390,833;67,04746
 483,29;  960,479;  666,558; 1170,538;58,31999
 483,88;  959,411;  518,633; 1017,579;88,34191
 484,46;  936,675;  602,404; 1118,219;64,80455
 485,05; 1148,853;  754,210; 1267,760;76,84597
 485,63; 1906,490; 1441,986; 2040,638;77,59156
 486,22; 1272,426;  860,795; 1325,373;88,60320
 486,81;  719,137;  404,122;  842,007;71,94007
 487,39;  991,640;  527,033; 1154,208;74,07932
 487,98;  983,122;  648,540; 1115,587;71,63779
 488,56; 1444,754; 1060,135; 1573,720;74,88909
 489,15; 1741,430; 1353,017; 1806,302;85,68853
 489,74; 2169,922; 1697,540; 2384,587;68,75544
 490,32; 1193,641;  802,100; 1268,818;83,89234
 490,91;  994,274;  495,479; 1147,260;76,52811
 491,49; 1059,742;  603,404; 1159,219;82,10254
 492,08; 1245,121;  832,135; 1291,720;89,86062
 492,66; 2454,960; 1986,241; 2586,424;78,09601
 493,25; 1077,746;  638,558; 1175,538;81,78846
 493,84; 1741,667; 1303,448; 1812,596;86,06911
 494,42; 1395,817;  869,637; 1512,816;81,80920
 495,01; 1730,606; 1285,074; 1786,392;88,87211
 495,59; 1375,854;  906,615; 1511,628;77,55859
 496,18;  976,832;  494,320; 1103,703;79,18038
 496,76; 1452,556; 1084,986; 1543,638;80,14139
 497,35;  807,870;  326,501;  964,448;75,45597
 497,93; 1696,189; 1210,263; 1865,613;74,14763
 498,52; 1082,822;  526,061; 1176,679;85,57414
 499,10; 1691,843; 1100,606; 1834,153;80,59977
 499,69; 2777,611; 2332,153; 2876,670;81,80778
 500,27; 2645,040; 2102,655; 2855,767;72,01921
 500,86; 2445,794; 2002,822; 2643,799;69,10892
 501,44; 2889,116; 2298,333; 3028,416;80,91996
 502,03; 1138,840;  485,932; 1330,742;77,28461
 502,61; 1467,084;  903,461; 1611,309;79,62493
 503,20;  756,123;  148,743;  934,521;77,29668
 503,78; 1835,667; 1224,826; 1948,037;84,46233
 504,37; 1094,982;  496,888; 1285,365;75,85433
 504,95; 2936,917; 2376,259; 3038,375;84,67668
 505,54;  837,294;  155,822;  923,799;88,73602
 506,12; 1951,657; 1303,844; 2236,988;69,42264
 506,71; 1287,386;  626,143; 1453,151;79,95605
 507,29; 1276,166;  609,523; 1312,636;94,81297
 507,88; 1188,320;  470,068; 1210,110;97,05560
 508,46;  721,031;   19,496;  936,210;76,52710
 509,05; 1161,327;  537,619; 1376,866;74,31759
 509,63; 3079,064; 2454,496; 3236,210;79,89723
 510,22; 1205,905;  514,250; 1325,900;85,21599
 510,80; 3047,277; 2394,430; 3281,645;73,58383
 511,39; 2542,107; 1841,756; 2723,234;79,45191
 511,97; 1678,911; 1020,355; 1814,604;82,91559
 512,55; 3390,718; 2748,562; 3718,776;66,18707
 513,14; 1251,163;  530,949; 1421,692;80,85540
 513,72; 2131,538; 1420,703; 2375,382;74,45798
 514,31; 2298,931; 1640,597; 2477,677;78,64647
 514,89; 2580,929; 1873,369; 2755,317;80,22692
 515,48; 1755,201;  939,927; 1968,504;79,26229
 516,06; 2258,607; 1397,310; 2530,183;76,02764
 516,65; 1582,370;  739,399; 1781,981;80,85411
 517,23;  870,693;   53,518; 1068,399;80,51933
 517,81; 1472,730;  798,672; 1593,718;84,78228
 518,40; 2077,606; 1161,932; 2237,742;85,11491
 518,98; 2101,142; 1361,303; 2305,752;78,33549
 519,57; 1484,472;  683,729; 1763,808;74,13749
 520,15; 1114,498;  265,077; 1346,585;78,54043
 520,73; 1814,430;  940,395; 2045,744;79,07329
 521,32; 2127,665; 1256,421; 2328,170;81,29184
 521,90; 1498,300;  550,347; 1603,129;90,04266
 522,49; 3883,856; 3029,918; 4192,029;73,48160
 523,07; 1400,941;  535,857; 1528,701;87,13193
 523,65; 3209,584; 2321,738; 3422,283;80,67328
 524,24; 2144,601; 1161,272; 2311,088;85,52053
 524,82; 2158,846; 1280,382; 2317,031;84,74082
 525,40; 2249,895; 1172,822; 2441,799;84,87721
 525,99; 1056,779;   81,936; 1333,979;77,86016
 526,57; 1838,374;  914,756; 2074,234;79,65807
 527,16; 2361,796; 1359,227; 2588,667;81,54682
 527,74; 1171,773;   85,831; 1407,275;82,17844
 528,32; 2422,193; 1357,518; 2656,399;81,96868
 528,91; 1341,099;  303,077; 1491,585;87,33817
 529,49; 1866,455;  824,439; 2032,120;86,28238
 530,07; 1875,827;  824,897; 2077,840;83,87689
 530,66; 1197,721;   61,372; 1443,511;82,21675
 531,24; 1642,111;  556,633; 1814,579;86,28974
 531,82; 1528,321;  358,237; 1699,187;87,25787
 532,41; 1965,596;  835,747; 2194,759;83,13752
 532,99; 1792,678;  543,633; 1910,579;91,37486
 533,57; 1981,523;  795,263; 2168,613;86,37710
 534,16; 2097,615;  853,611; 2323,390;84,63886
 534,74; 1703,284;  392,637; 1845,816;90,19166
 535,32; 2849,854; 1535,791; 3012,135;89,00787
 535,90; 2417,719; 1193,765; 2573,709;88,69589
 536,49; 1732,365;  541,800; 2028,611;80,07511
 537,07; 1385,889;   22,263; 1583,613;87,33637
 537,65; 3266,823; 1981,364; 3457,080;87,10750
 538,24; 1535,495;  147,923; 1694,266;89,73246
 538,82; 1901,948;  454,685; 2077,431;89,18602
 539,40; 2950,756; 1497,398; 3309,937;80,18357
 539,99; 2641,857; 1216,567; 2927,013;83,32855
 540,57; 1828,934;  410,549; 2092,063;84,35167
 541,15; 2989,544; 1581,153; 3270,670;83,36055
 541,73; 2644,937; 1250,223; 2868,474;86,18652
 542,32; 1860,915;  227,888; 2113,365;86,61083
 542,90; 2518,952;  879,663; 2734,243;88,39140
 543,48; 3182,706; 1529,108; 3419,249;87,48541
 544,06; 2410,805;  758,250; 2488,900;95,48756
 544,65; 3199,788; 1533,271; 3433,044;87,72190
 545,23; 1981,512;  126,315; 2215,421;88,80343
 545,81; 4793,173; 2993,655; 5138,767;83,88925
 546,39; 1996,364;   -3,747; 2299,093;86,85412
 546,98; 2987,125; 1101,046; 3315,922;85,15505
 547,56; 2804,332;  853,800; 3047,611;88,91068
 548,14; 3558,374; 1430,655; 3771,767;90,88495
 548,72; 3532,441; 1626,756; 3906,234;83,60180
 549,31; 2667,074;  623,756; 2962,234;87,37811
 549,89; 2931,255;  824,095; 3430,536;80,84434
 550,47; 3048,090;  814,844; 3507,988;82,92340
 551,05; 2822,530;  632,672; 3086,718;89,23459
 551,63; 4038,130; 1826,672; 4438,718;84,66383
 552,22; 3213,579;  927,659; 3544,005;87,37072
 552,80; 3024,764;  833,395; 3456,743;83,53327
 553,38; 3211,805;  835,284; 3706,757;82,76314
 553,96; 3047,539;  611,729; 3442,808;86,03823
 554,54; 3940,838; 1512,426; 4466,407;82,20810
 555,13; 3267,069;  779,853; 3670,463;86,04466
 555,71; 2556,092;  -27,029; 2955,881;86,59736
 556,29; 4395,623; 1829,020; 4907,496;83,37253
 556,87; 3214,515;  615,888; 3825,365;80,96732
 557,45; 3031,027;  345,241; 3478,424;85,72067
 558,03; 3010,635;  208,231; 3574,905;83,23956
 558,62; 3736,931;  993,875; 4206,652;85,37960
 559,20; 3194,050;  362,191; 3668,765;85,64327
 559,78; 4282,691; 1476,046; 4896,921;82,04464
 560,36; 3501,553;  558,589; 4080,202;83,56864
 560,94; 3786,321;  795,892; 4116,603;90,05388
 561,52; 4803,583; 1661,015; 5228,258;88,09517
 562,11; 3785,629;  693,024; 4337,733;84,85190
 562,69; 4158,873; 1087,831; 4861,275;81,38564
 563,27; 3307,643;   90,883; 3920,127;84,00508
 563,85; 4440,676; 1101,985; 5029,594;85,00570
 564,43; 3288,348;  -40,213; 3696,898;89,06776
 565,01; 3881,646;  427,936; 4415,979;86,60161
 565,59; 3546,708;  172,337; 4006,609;88,00552
 566,18; 3828,031;  302,976; 4333,119;87,46726
 566,76; 4057,113;  578,382; 4657,030;85,29127
 567,34; 4611,227; 1067,897; 5139,840;87,01815
 567,92; 4666,092; 1132,350; 5311,322;84,56008
 568,50; 4533,120;  825,967; 5251,643;83,76466
 569,08; 5020,220; 1398,967; 5600,643;86,18591
 569,66; 4387,971;  659,183; 5026,290;85,38349
 570,24; 4351,065;  635,320; 5002,703;85,07945
 570,82; 5158,516; 1509,989; 5884,832;83,39790
 571,40; 4089,496;  252,747; 4817,759;84,04685
 571,99; 4206,565;  394,699; 4840,144;85,74768
 572,57; 4376,414;  519,341; 5035,847;85,39950
 573,15; 5672,089; 1693,817; 6272,562;86,88565
 573,73; 3988,924;  -59,055; 4626,455;86,39357
 574,31; 4491,852;  369,386; 5099,268;87,15790
 574,89; 4767,909;  661,161; 5440,102;85,93428
 575,47; 4126,360;  -57,002; 4865,307;84,98780
 576,05; 5112,819; 1024,487; 5976,735;82,55508
 576,63; 4887,002;  720,231; 5855,905;81,13387
 577,21; 4428,813;  330,558; 5155,538;84,93827
 577,79; 4799,313;  727,936; 5856,979;79,37886
 578,37; 4170,308; -195,143; 5099,701;82,44720
 578,95; 4641,522;  355,817; 5749,562;79,45695
 579,53; 4729,655;  324,095; 5673,536;82,35553
 580,11; 4335,740;  -96,967; 5246,208;82,96017
 580,69; 5546,241; 1179,958; 6509,168;81,93115
 581,27; 6871,289; 2450,196; 7913,003;80,93079
 581,85; 5185,916;  611,813; 6288,324;80,57948
 582,43; 5937,377; 1271,910; 7184,553;78,90663
 583,01; 5306,019;  556,765; 6374,709;81,63114
 583,59; 5073,448;  293,685; 6173,431;81,29199
 584,17; 5784,971;  920,703; 6834,382;82,25451
 584,75; 5692,583;  652,191; 6664,765;83,83085
 585,33; 6026,079;  957,936; 7085,979;82,70410
 585,91; 6341,021; 1176,095; 7205,536;85,66178
 586,49; 5868,793;  536,619; 6847,866;84,48686
 587,07; 5902,303;  577,501; 6885,448;84,41419
 587,65; 6264,284;  995,637; 7312,816;83,40188
 588,23; 6055,208;  753,235; 7082,142;83,77391
 588,81; 6339,751;  955,941; 7266,217;85,31815
 589,39; 6080,180;  654,139; 6856,913;87,47765
 589,97; 7355,939; 1810,831; 8242,274;86,21873
 590,55; 5868,989;  341,919; 6905,029;84,21420
 591,13; 6148,826;  649,316; 7160,465;84,46297
 591,71; 6590,172; 1032,108; 7671,249;83,71662
 592,29; 6107,739;  639,007; 7101,782;84,61894
 592,87; 6747,016; 1408,813; 8080,324;80,01490
 593,45; 5656,107;  371,033; 6907,208;80,85881
 594,03; 6914,285; 1592,941; 8588,217;76,07054
 594,61; 5492,078;  195,355; 6988,604;77,97039
 595,19; 5849,860;  590,897; 7425,840;76,94231
 595,77; 5471,053;  139,866; 7173,176;75,79911
 596,35; 5836,883;  645,090; 7582,298;74,83980
 596,93; 5308,409;   65,404; 7034,219;75,23524
 597,51; 5670,525;  453,492; 7548,973;73,52614
 598,09; 5736,776;  586,606; 7593,153;73,50512
 598,66; 6380,295; 1345,923; 8439,267;70,97319
 599,24; 5266,360;  277,998; 7483,307;69,23176
 599,82; 6299,345; 1395,011; 8549,021;68,55364
 600,40; 5502,561;  502,619; 7668,866;69,77071
 600,98; 6660,789; 1630,540; 9163,587;66,77576
 601,56; 5309,503;  220,778; 7620,422;68,76986
 602,14; 5523,318;  593,218; 7824,191;68,18031
 602,72; 5694,475;  621,059; 8150,635;67,37984
 603,30; 5489,984;  608,738; 8203,283;64,27305
 603,87; 5681,614;  787,618; 8558,821;62,97604
 604,45; 5767,364;  867,773; 8619,185;63,20901
 605,03; 5106,442;  278,059; 7952,635;62,91400
 605,61; 5697,294;  931,721; 8563,333;62,44517
 606,19; 4931,340;  131,932; 7897,742;61,80177
 606,77; 5984,680; 1341,037; 9221,446;58,92641
 607,35; 4540,472; -101,993; 7796,782;58,77450
 607,93; 4837,104;  123,081; 8183,823;58,48126
 608,50; 5610,813; 1065,861; 9094,938;56,60616
 609,08; 5098,349;  546,090; 8388,299;58,04817
 609,66; 6356,600; 1862,103; 9886,012;56,01381
 610,24; 5777,697; 1272,395; 9616,743;53,99226
 610,82; 4625,818;  196,663; 8496,242;53,36602
 611,40; 5944,630; 1506,672; 9670,718;54,35979
 611,97; 4561,589;  115,020; 8067,496;55,91428
 612,55; 4365,987;  -92,932; 8091,110;54,48309
 613,13; 5585,102; 1050,231; 9159,904;55,91928
 613,71; 5875,172; 1462,007; 9886,782;52,38318
 614,29; 5396,938;  908,905; 9120,315;54,65606
 614,87; 5207,091;  625,147; 8984,389;54,81292
 615,44; 5720,147; 1164,963; 9804,405;52,72545
 616,02; 4834,031;  218,773; 8824,185;53,63204
 616,60; 4812,416;  269,090; 8901,299;52,63225
 617,18; 5751,760; 1210,275; 9880,281;52,38157
 617,76; 5718,850; 1195,914;10188,791;50,29465
 618,33; 4731,644;  204,086; 8999,061;51,47892
 618,91; 5674,501; 1115,306;10207,945;50,14160
 619,49; 6396,846; 1740,037;10525,446;53,00617
 620,07; 5810,165; 1120,976; 9906,118;53,37636
 620,64; 5422,095;  780,200; 9494,241;53,26914
 621,22; 4538,360; -108,002; 8632,307;53,16016
 621,80; 5038,804;  307,081; 9158,823;53,45527
 622,38; 6635,423; 2106,020;10955,495;51,18273
 622,95; 5755,872;  928,183;10100,290;52,63446
 623,53; 4745,896;  -88,253; 9270,759;51,65234
 624,11; 5423,906;  569,831; 9572,274;53,91953
 624,69; 5022,910;  189,086; 9395,061;52,50747
 625,26; 5103,089;  196,540; 9387,587;53,38400
 625,84; 5054,086;  121,967; 9348,644;53,45499
 626,42; 5238,500;  469,624; 9713,104;51,59178
 627,00; 5573,366;  912,245;10166,662;50,36645
 627,57; 5831,369; 1095,298;10584,515;49,91003
 628,15; 4606,952; -119,958; 9171,684;50,87271
 628,73; 6204,466; 1432,901;10803,078;50,92289
 629,31; 5477,615;  626,509;10014,924;51,67119
 629,88; 5731,951;  788,117;10384,725;51,51647
 630,46; 4718,064; -184,125; 9233,651;52,05252
 631,04; 5498,704;  493,703;10199,382;51,56776
 631,61; 5529,938;  546,081;10343,823;50,86740
 632,19; 4823,793; -232,826; 9468,814;52,12128
 632,77; 5369,905;  485,527;10182,874;50,36819
 633,34; 5080,819;  215,866; 9926,177;50,10090
 633,92; 5837,186;  790,765;10685,709;50,99999
 634,50; 5189,024;  184,391; 9999,506;50,98905
 635,08; 6654,485; 1636,386;11547,269;50,63221
 635,65; 5839,162;  791,024;10784,733;50,51316
 636,23; 5562,321;  475,892;10573,603;50,37210
 636,81; 6647,915; 1470,888;11444,365;51,90795
 637,38; 4953,099; -310,099; 9904,078;51,52836
 637,96; 5146,960; -110,482; 9923,398;52,39690
 638,54; 6448,354; 1350,615;11569,628;49,88485
 639,11; 5488,664;  144,152;10694,626;50,65661
 639,69; 7060,497; 1775,328;12284,134;50,29276
 640,26; 5569,631;  136,788;10597,993;51,93324
 640,84; 6277,825;  880,792;11358,218;51,51106
 641,42; 5565,153;  182,797;10815,442;50,62104
 641,99; 5520,681;  103,801;10739,667;50,93031
 642,57; 5894,208;  526,805;11027,892;51,11283
 643,15; 6900,936; 1497,809;12131,115;50,81324
 643,72; 5281,264; -126,187;10417,340;51,28692
 644,30; 5629,458;  156,817;10998,564;50,47748
 644,87; 6504,352;  883,822;11888,789;51,07267
 645,45; 5522,313; -233,174;10889,014;51,74780
 646,03; 6887,174; 1176,830;12490,238;50,47413
 646,60; 7209,535; 1450,834;12975,462;49,96865
 647,18; 5809,229;   55,838;11320,687;51,07385
 647,75; 6145,090;  229,842;11635,911;51,86053
 648,33; 5947,151;   50,846;11400,136;51,95308
 648,91; 5565,079; -342,149;10954,360;52,29251
 649,48; 6042,874;   64,855;11407,584;52,70353
 650,06; 6412,068;  273,859;12067,809;52,04541
 650,63; 6085,295;    8,863;11764,033;51,69157
 651,21; 6762,023;  794,867;12482,258;51,05636
 651,79; 7242,251; 1184,871;12823,482;52,04555
 652,36; 6927,479;  789,876;12407,707;52,82916
 652,94; 6459,506;  304,880;12063,931;52,33948
 653,51; 6378,500;  157,884;11780,155;53,52324
 654,09; 7131,428;  770,888;12511,380;54,17610
 654,66; 6905,056;  561,892;11944,604;55,72629
 655,24; 6854,517;  344,896;12320,829;54,35585
 655,81; 7723,378; 1133,901;13285,053;54,22924
 656,39; 7191,039;  424,905;12899,277;54,24028
 656,96; 6944,500;   44,909;12670,502;54,64766
 657,54; 8350,327; 1420,913;14045,727;54,88726
 658,11; 7603,022;  505,917;13199,951;55,90898
 658,69; 7566,816;  590,921;13306,176;54,86241
 659,27; 8066,877;  855,925;13723,399;56,04015
 659,84; 8521,738; 1275,930;14294,624;55,65695
 660,42; 7409,799;   87,934;13214,849;55,77750
 660,99; 7272,960; -329,062;13238,073;56,03262
 661,57; 8355,588;  684,942;13955,298;57,80286
 662,14; 8789,315;  955,946;14255,521;58,89939
 662,72; 7686,110; -294,050;13491,746;57,88683
 663,29; 8182,938;   -0,045;13725,971;59,61659
 663,87; 8056,732; -295,041;13309,195;61,39097
 664,44; 9600,227; 1287,963;14786,420;61,57936
 665,01; 9086,153;  451,967;14342,644;62,15814
 665,59; 9166,448;  212,971;14260,868;63,73536
 666,16; 9191,143;   15,975;13968,093;65,76183
 666,74; 9365,236;  177,979;14461,317;64,32150
 667,31; 9598,431;  139,984;14536,542;65,69936
 667,89;10249,492;  391,988;15060,767;67,20058
 668,46;11536,420; 1389,992;16253,990;68,26177
 669,04;11447,381; 1139,996;16251,215;68,21015
 669,61;10973,642;  219,000;15412,439;70,78477
 670,19;11063,736;   48,004;15669,664;70,51576
 670,76;11143,964;   40,009;15553,889;71,57433
 671,33;11356,158;  -66,987;15545,112;73,16854
 671,91;13126,386; 1346,017;17217,338;74,22425
 672,48;12003,080;  285,021;16228,562;73,49722
 673,06;12557,408;  960,025;16910,785;72,70740
 673,63;12053,103;  232,029;16289,011;73,61952
 674,21;11896,996; -369,967;15895,235;75,41845
 674,78;13096,324;  779,038;16923,459;76,29438
 675,35;13031,019;  486,042;16904,684;76,40691
 675,93;14061,279; 1238,046;17813,908;77,36088
 676,50;13151,540;  326,050;16767,133;78,00879
 677,08;12862,769;  109,054;16642,357;77,13954
 677,65;12618,529;  -44,942;16340,581;77,28451
 678,22;13252,557;  271,063;17131,807;76,99242
 678,80;12912,951; -268,933;16488,031;78,66511
 679,37;13526,512; -122,929;17007,254;79,68065
 679,94;13755,073;    6,075;17062,479;80,60901
 680,52;14606,101;  627,079;17897,703;80,94103
 681,09;15046,062;  755,083;18169,928;82,06205
 681,67;15871,356;  943,087;18860,152;83,31872
 682,24;15854,551;  756,092;19201,377;81,85538
 682,81;15304,911;   -6,904;18507,602;82,70172
 683,39;15378,772;  -68,900;18892,826;81,46765
 683,96;15626,700;  233,104;19327,051;80,62029
 684,53;16600,160;  917,108;19870,275;82,74634
 685,11;16628,555;  650,112;19593,500;84,34839
 685,68;16694,949;  306,117;19814,723;84,00822
 686,25;16482,545;   37,121;19744,947;83,44616
 686,83;17074,072;  540,125;20574,172;82,52924
 687,40;17290,332;  628,129;20960,396;81,94956
 687,97;17311,594;  533,133;20891,621;82,41506
 688,55;16886,221;  -44,863;20890,846;80,87180
 689,12;17242,016;  218,141;21088,070;81,57131
 689,69;18222,410; 1332,146;21852,295;82,31063
 690,27;17285,504;  126,150;20799,520;83,00221
 690,84;17008,398; -329,846;20405,744;83,61587
 691,41;18174,893;  813,158;21490,967;83,96313
 691,98;18347,420; 1105,162;21488,191;84,59124
 692,56;18146,814;  630,166;21580,416;83,61069
 693,13;17504,377; -276,829;20973,641;83,67441
 693,70;18474,170;  669,175;21964,865;83,60844
 694,28;18304,631;  262,179;22022,090;82,91602
 694,85;18139,859;  -51,817;21694,314;83,65477
 695,42;18584,986;  173,187;22512,539;82,41868
 695,99;19015,947;  727,191;23263,764;81,15145
 696,57;18237,076;  -45,805;22262,988;81,95370
 697,14;18809,504;  419,200;22634,213;82,78322
 697,71;18822,498;  206,204;22512,436;83,45782
 698,28;19513,691;  560,208;23123,660;84,00081
 698,86;21129,420; 2059,212;24482,885;85,04498
 699,43;20098,414;  745,216;23177,109;86,27537
 700,00;20039,809;  273,220;23456,334;85,26287
 700,57;19457,068; -392,775;22927,559;85,11818
 701,15;20576,297;  748,229;24081,783;84,97663
 701,72;20077,625; -110,767;23205,008;86,58684
 702,29;21527,152;  806,237;24418,232;87,75588
 702,86;20554,813; -429,759;23026,457;89,46273
 703,43;21851,174;  899,245;24461,682;88,92089
 704,01;20717,402;  -93,751;23056,904;89,89445
 704,58;20498,430; -379,746;23123,129;88,83243
 705,15;21852,258;  695,258;24573,354;88,60422
 705,72;20927,117; -358,738;23453,578;89,39011
 706,29;21322,846;  111,266;23831,803;89,42285
 706,87;21441,641;  435,270;24049,027;88,95819
 707,44;21662,635;  232,274;24264,252;89,17435
 708,01;21949,828;  271,279;24595,477;89,12339
 708,58;21644,924; -329,717;24187,701;89,62869
 709,15;21596,018; -434,713;24188,926;89,46984
 709,72;22900,244; 1309,291;25932,150;87,68662
 710,30;22209,340;  562,295;25941,373;85,29484
 710,87;20965,867; -362,701;25013,598;84,04917
 711,44;21249,096;  -48,697;25449,822;83,52561
 712,01;21633,689;  -87,692;25626,047;84,47384
 712,58;22059,816; -317,688;25762,271;85,80345
 713,15;23292,545;  327,316;26890,496;86,45512
 713,73;23159,039;  322,320;26734,721;86,46211
 714,30;23015,299;  619,324;26482,945;86,59257
 714,87;23115,828;  498,328;26521,170;86,91403
 715,44;22841,322;  -18,667;26447,395;86,37473
 716,01;23645,684;  669,337;27451,619;85,78935
 716,58;23767,777;  467,341;27533,842;86,08588
 717,15;25954,072; 1913,345;29112,066;88,38918
 717,72;24314,666;  -44,651;27173,291;89,49728
 718,30;24618,760; -431,647;27320,516;90,26470
 718,87;24940,055;  328,358;28020,740;88,87533
 719,44;24971,082;  275,362;28307,965;88,09642
 720,01;24738,877;  238,366;28435,189;86,89103
 720,58;25409,203; 1059,370;29680,414;85,07668
 721,15;24234,564; -253,626;28359,639;85,58335
 721,72;24797,727;  150,378;28745,863;86,19315
 722,29;25364,287;  609,382;28982,088;87,24901
 722,86;25046,682;  215,387;28633,311;87,37899
 723,43;25632,109;  907,391;29078,535;87,76611
 724,00;25266,504;  609,395;28941,760;87,02807
 724,57;25465,797;  709,399;29018,984;87,44882
 725,14;25080,926;  124,403;28911,209;86,69431
 725,72;25680,420;  259,407;29683,434;86,39543
 726,29;26258,580;  573,411;30019,658;87,22731
 726,86;27078,242; 1334,416;30799,883;87,36948
 727,43;26946,170;  858,420;30694,107;87,43807
 728,00;26476,896;  228,424;30260,332;87,40195
 728,57;27549,592;  997,428;31584,555;86,80830
 729,14;26952,086;  -33,568;30888,779;87,26910
 729,71;27510,613;  587,436;31385,004;87,41982
 730,28;27478,174;  957,441;31486,229;86,87123
 730,85;27253,635;  796,445;31331,453;86,64543
 731,42;26617,963;  -73,551;30301,678;87,87264
 731,99;26986,791;  -32,547;30459,902;88,60993
 732,56;28492,086; 1321,457;31220,127;90,87571
 733,13;27864,979;  360,461;30077,352;92,55517
 733,70;28427,840;  606,466;30607,576;92,73448
 734,27;28055,268;  127,470;31108,801;90,14396
 734,84;27035,029; -530,526;31182,023;86,92318
 735,41;28173,457;  946,478;32392,248;86,58392
 735,98;28221,852;  274,482;32331,473;87,18027
 736,55;27746,213; -456,514;31678,697;87,76269
 737,12;28274,707; -246,510;31550,922;89,69661
 737,69;28475,801;   80,495;31132,146;91,44540
 738,26;28203,895;  -42,501;31427,371;89,75694
 738,83;28723,889;  395,503;31820,596;90,14575
 739,40;29303,883;  317,507;32856,820;89,08109
 739,97;29347,379;  146,511;33819,043;86,72014
 740,53;29417,406;  718,515;34773,270;84,27279
 741,10;29264,699;  796,520;34553,492;84,33274
 741,67;29244,928;  375,524;34279,719;85,14995
 742,24;29899,988;  312,528;34585,941;86,32773
 742,81;29469,850; -436,468;33383,168;88,42886
 743,38;31539,277; 1609,536;34812,391;90,14207
 743,95;30576,539;  342,540;33806,613;90,34764
 744,52;31488,533; 1037,544;34909,840;89,89940
 745,09;30534,027; -201,451;33991,063;89,88950
 745,66;31151,922;  905,553;34294,289;90,58854
 746,23;30837,949;  698,557;34034,512;90,41107
 746,80;31187,877; 1341,561;34807,738;89,18352
 747,36;30824,004;  770,565;34307,961;89,61172
 747,93;30222,633;   -4,431;34108,188;88,60963
 748,50;30317,793; -125,426;34350,410;88,30306
 749,07;30488,121;  173,578;35316,637;86,26040
 749,64;30168,648;  -39,418;34938,859;86,36236
 750,21;31336,275; 1177,586;36005,082;86,59448
 750,78;29935,736;  -82,410;34037,309;87,97888
 751,35;30705,697;  673,594;35052,531;87,35611
 751,92;30153,992;  -17,402;34913,758;86,37387
 752,48;29806,721; -403,397;34662,980;86,15124
 753,05;30048,348;  110,607;34982,207;85,85135
 753,62;31096,309;  970,611;35866,430;86,33039
 754,19;31038,236;  922,615;35850,656;86,22190
 754,76;31492,197; 1205,619;36094,879;86,80774
 755,33;30239,426; -403,377;34884,105;86,83760
 755,89;32108,953; 1093,628;36551,328;87,47134
 756,46;31270,480;  261,632;35915,551;86,97178
 757,03;31193,408;  353,636;35733,777;87,16690
 757,60;30135,135; -295,360;35158,000;85,83247
 758,17;30401,430;  468,644;35803,227;84,71244
 758,74;30660,924; 1008,648;36620,449;83,26531
 759,30;29680,752; -459,348;35092,676;84,77745
 759,87;30631,246;  296,657;35815,898;85,40326
 760,44;31377,908; 1178,661;36576,125;85,31472
 761,01;30286,135;  164,665;35655,348;84,87149
 761,58;30792,596;  720,669;35761,574;85,81949
 762,14;30698,291;  272,673;35347,797;86,74415
 762,71;30941,084;    8,677;35484,020;87,19410
 763,28;31765,078;  759,682;35762,246;88,58036
 763,85;30857,506; -385,314;34443,469;89,70402
 764,41;31344,967;  320,690;35286,695;88,72697
 764,98;31455,162;  306,694;36159,918;86,87773
 765,55;30407,355; -423,302;34966,145;87,11822
 766,12;30840,750;  695,702;35199,367;87,36767
 766,69;30588,211;  397,706;34580,594;88,32052
 767,25;31598,807; 1124,711;35543,816;88,53831
 767,82;31224,666;  389,715;34805,043;89,59656
 768,39;30841,527;  -43,281;35240,266;87,53317
 768,95;30649,756; -112,277;35156,488;87,22175
 769,52;30779,916;  286,727;35531,715;86,51780
 770,09;30890,377; 1030,731;35302,938;87,12496
 770,66;32925,605; 2322,736;36568,164;89,36337
 771,22;32265,100; 1146,740;35611,387;90,29067
 771,79;32482,395; 1407,744;36495,613;88,56238
 772,36;31473,322;  883,748;35405,836;88,60870
 772,93;30212,283;   13,752;34481,063;87,61499
 773,49;31036,943;  819,756;35336,285;87,54411
 774,06;30830,371;  251,760;35141,512;87,64353
 774,63;30932,600;  293,765;35559,734;86,87932
 775,19;30475,561;   63,769;35210,957;86,52696
 775,76;30277,887;  172,773;35123,184;86,13665
 776,33;29781,549; -162,223;34134,406;87,30821
 776,89;30593,609;  731,781;35505,633;85,87438
 777,46;29998,070;  198,785;34896,855;85,88168
 778,03;30607,564;  465,790;35078,082;87,08402
 778,59;29947,025; -475,206;33840,305;88,65446
 779,16;30884,154; -159,202;34160,531;90,45337
 779,73;31441,881;  291,802;35087,754;89,52213
 780,29;31477,275;  489,806;35285,980;89,05424
 780,86;30976,938;  142,810;34182,203;90,58366
 781,43;31563,564; 1048,814;34909,426;90,11872
 781,99;30565,926;  -51,181;33955,652;90,03222
 782,56;31215,586;  533,823;34331,875;90,77968
 783,13;31125,914;  378,827;34889,102;89,09546
 783,69;30378,441;  -40,169;34139,324;88,99667
 784,26;29919,736;  -53,165;34306,551;87,23268
 784,82;30081,230;  194,839;34553,773;86,98288
 785,39;29182,691; -575,156;33536,000;87,23787
 785,96;29627,119;  131,848;33991,223;87,11109
 786,52;29611,080;  375,852;33930,449;87,12734
 787,09;29392,941;  139,856;33701,672;87,16181
 787,65;29006,701; -292,140;33205,895;87,46436
 788,22;29769,264;  604,864;34423,121;86,23862
 788,79;29951,357;  551,869;34690,344;86,11834
 789,35;29602,451;   23,873;34246,570;86,42971
 789,92;29469,779;  -82,123;34301,793;85,94688
 790,48;29350,873;  159,881;34514,020;84,97082
 791,05;29403,400;  404,885;34847,242;84,19434
 791,62;29666,729;  981,889;35170,469;83,90182
 792,18;29159,623;  333,893;34350,691;84,73969
 792,75;28649,684;  -73,102;33422,918;85,74985
 793,31;28257,611; -170,098;32527,141;86,94223
 793,88;29145,639; 1132,906;33797,363;85,75906
 794,44;27878,867;  138,910;32289,590;86,28109
 795,01;28362,461;  604,914;33081,813;85,46859
 795,57;28124,756;  125,918;32842,039;85,58117
 796,14;29071,518;  652,923;33262,262;87,14864
 796,70;28342,744; -375,073;32049,486;88,56810
 797,27;29399,572;  779,931;33195,711;88,28923
 797,83;28637,967;  -19,065;32063,936;89,32155
 798,40;29179,762;  338,939;32672,160;89,19873
 798,97;28967,555;   86,943;32576,385;88,89230
 799,53;28686,750; -255,053;32559,609;88,19778
 800,10;28132,811; -396,048;32398,834;86,99180
 800,66;28320,539;  340,956;32261,059;87,65505
 801,23;28092,033;  355,960;31917,283;87,87994
 801,79;30541,961; 2639,964;33717,508;89,78186
 802,35;28905,988;  506,968;32075,730;89,95924
 802,92;28906,383;  187,972;32052,955;90,12530
 803,48;28609,076;  296,977;31774,180;89,94478
 804,05;28207,404;  551,981;31882,404;88,27019
 804,61;28636,064; 1141,985;32590,629;87,42533
 805,18;27756,459;  333,989;32301,854;85,78136
 805,74;28486,854;  923,993;33375,078;84,93664
 806,31;28010,781;  258,997;32573,303;85,88080
 806,87;30020,076; 2252,001;34745,527;85,45725
 807,44;27549,203; -300,994;31781,752;86,80740
 808,00;29124,531;  975,010;33007,977;87,87672
 808,57;29150,592;  558,014;32576,199;89,30106
 809,13;32409,688; 3568,018;36001,426;88,92581
 809,69;29071,682;  426,022;32999,648;87,94127
 810,26;30201,643; 1852,026;34191,875;87,66156
 810,82;27742,736; -497,969;31959,098;87,00942
 811,39;28848,830;  831,035;32465,322;88,56781
 811,95;29728,092; 1828,039;33564,547;87,91154
 812,51;27957,086; -108,957;31835,771;87,85814
 813,08;27554,947;  106,047;31361,996;87,81976
 813,64;27388,107;   -2,949;31553,221;86,80095
 814,21;29007,568; 1948,055;33244,445;86,46209
 814,77;30742,396; 3342,060;35068,668;86,36390
 815,33;28182,424;  200,064;31797,893;88,55786
 815,90;27765,252;  249,068;31915,117;86,89491
 816,46;27485,945;  435,072;31809,342;86,21993
 817,03;26972,674;  338,076;31054,566;86,71107
 817,59;27470,301; 1311,080;32334,791;84,32009
 818,15;27117,830; 1280,085;32356,016;83,14391
 818,72;26517,156;  693,089;31494,240;83,84124
 819,28;25975,252;  290,093;30897,465;83,91821
 819,84;27482,846; 1579,097;32226,689;84,52132
 820,41;25886,707; -107,899;30110,914;86,02127
 820,97;26729,934;  786,105;30563,137;87,12698
 821,53;25960,629;  -72,891;29728,361;87,35713
 822,10;27057,957; 1009,114;30564,586;88,13543
 822,66;26308,184;  402,118;30016,811;87,47707
 823,22;25313,578; -181,878;29201,035;86,76967
 823,79;28241,139; 2797,126;32493,260;85,68123
 824,35;25707,701;  -63,870;29834,484;86,19729
 824,91;25560,527; -114,866;29446,709;86,85394
 825,48;26513,955;  869,139;30342,934;87,00887
 826,04;26427,250;  905,143;29911,158;87,98901
 826,60;25904,311;  455,147;29583,383;87,36940
 827,17;26076,205;  636,151;29941,605;86,80996
 827,73;25272,732; -474,845;28499,830;88,86235
 828,29;25888,293; -106,841;28882,055;89,67273
 828,85;26606,289;  345,163;29264,279;90,80888
 829,42;27671,049; 1574,168;30288,504;90,88450
 829,98;26437,109; 1022,172;29535,729;89,13282
 830,54;25688,205;  939,176;29102,953;87,87539
 831,11;23991,732;  -40,820;27922,178;85,94412
 831,67;23721,127; -114,816;27607,402;85,98137
 832,23;23892,254; -180,812;27699,627;86,34393
 832,79;23962,049;  -18,807;27997,850;85,59500
 833,36;24787,510;  864,197;28929,074;85,24289
 833,92;23711,271;   32,201;27719,299;85,52384
 834,48;24081,531;  377,205;27823,523;86,36614
 835,04;23643,193;  -91,791;27383,748;86,38587
 835,60;24611,020;  721,213;28534,973;85,89204
 836,17;24864,115;  476,217;28663,197;86,52185
 836,73;24303,375; -245,778;28406,422;85,67982
 837,29;24225,736; -108,774;28242,646;85,83171
 837,85;24955,398;  864,230;28922,871;85,86007
 838,42;23446,658; -418,766;27460,096;85,60401
 838,98;23545,020; -445,762;27448,318;86,00671
 839,54;23571,281; -366,758;27954,543;84,52309
 840,10;24549,908;  596,247;28924,768;84,55670
 840,66;24010,736;  262,251;28050,992;85,46082
 841,23;24397,164;  593,255;28519,217;85,23935
 841,79;24723,992;  547,259;28993,441;84,99113
 842,35;25747,953; 1355,263;29618,666;86,30486
 842,91;24465,047;  126,267;27923,891;87,55705
 843,47;25154,475;  209,271;28475,115;88,25211
 844,03;24384,668; -304,724;27571,340;88,56843
 844,60;24183,563; -115,720;27582,564;87,72847
 845,16;23704,357; -513,716;27171,787;87,47565
 845,72;24369,686;   -2,712;27200,012;89,59543
 846,28;24636,113; -208,708;26690,236;92,36356
 846,84;25122,439;  156,296;26908,461;93,32382
 847,40;25606,434;  564,301;27917,686;91,55040
 847,96;24569,162;  -38,695;27188,910;90,37834
 848,53;24228,990;  -30,691;27045,135;89,59904
 849,09;24025,051;  -89,687;26978,359;89,08932
 849,65;24819,111;  538,317;27803,584;89,05394
 850,21;24725,340;  224,321;27739,809;89,04447
 850,77;24969,400;  287,326;27492,033;90,72722
 851,33;25337,928;  633,330;28084,256;89,99550
 851,89;26900,057; 2209,334;29834,480;89,37771
 852,45;24724,150; -186,662;27601,705;89,64475
 853,01;25198,211;  368,342;28603,930;87,93820
 853,57;25343,305;  276,346;28522,154;88,74577
 854,14;24514,434; -484,650;28150,379;87,30246
 854,70;24803,561; -130,645;28185,604;88,05618
 855,26;24640,289;   39,359;27958,828;88,11389
 855,82;24127,549; -137,637;27888,053;86,58194
 856,38;24274,578;  428,367;28235,277;85,75642
 856,94;24522,771;  738,371;28133,502;86,81981
 857,50;23971,133;  235,375;27435,725;87,26269
 858,06;23280,193; -365,620;26667,949;87,46834
 858,62;23216,787;  -84,616;26483,174;87,70546
 859,18;23686,582;  638,388;27148,398;86,94147
 859,74;23345,643;  253,392;26907,623;86,63634
 860,30;23692,738;  354,396;26922,848;87,84231
 860,86;23712,633;  -42,600;26685,072;88,87879
 861,42;23702,160; -457,596;26541,297;89,48425
 861,98;24405,154;  395,409;27299,521;89,24192
 862,54;23277,281; -406,587;26627,746;87,60663
 863,10;23929,609;  613,417;27778,971;85,82999
 863,66;23174,336;  -84,579;26950,193;86,03333
 864,22;24324,564;  761,425;28220,418;85,81210
 864,78;24127,793;   34,429;27689,643;87,12051
 865,34;24220,320;   -2,566;27371,867;88,48726
 865,90;24468,281;  425,438;27804,092;87,81602
 866,46;24016,709;  338,442;27483,316;87,22924
 867,02;25579,104; 2305,446;29624,541;85,19191
 867,58;22859,330;  -68,550;27239,766;83,95933
 868,14;24324,324; 1577,454;29160,990;82,46539
 868,70;23997,420;  957,458;28907,215;82,43350
 869,26;23868,014;  821,463;28546,438;83,12560
 869,82;22867,240; -166,533;27041,662;84,65748
 870,38;22308,135; -437,529;25804,887;86,67519
 870,94;23903,264; 1289,475;26982,111;88,01661
 871,50;22182,957; -418,521;25237,336;88,09481
 872,06;22488,285; -316,517;25676,561;87,73414
 872,62;22663,580; -118,512;25946,785;87,40392
 873,18;22635,475; -104,508;26050,010;86,94476
 873,74;23648,135; 1107,496;26677,234;88,15358
 874,29;22992,162;  729,500;25922,459;88,36859
 874,85;22123,795; -139,500;24592,459;90,01832
 875,41;22230,463;   -0,500;24135,459;92,10723
 875,97;22595,529;  388,500;24736,459;91,20694
 876,53;23064,896;  576,500;25610,459;89,83156
 877,09;23224,596;  535,500;25920,459;89,38008
 877,65;24025,662; 1298,500;26751,459;89,29084
 878,21;22961,463;  176,500;25809,459;88,88932
 878,77;23020,396;  292,500;25813,459;89,05581
 879,33;22730,863;  360,500;25958,459;87,39120
 879,88;22280,863;  -29,500;25319,459;88,01294
 880,44;22508,896;  343,500;25887,459;86,77354
 881,00;22317,863;  -91,500;25620,459;87,15541
 881,56;22629,096;  -89,500;25856,459;87,56121
 882,12;24281,529; 1368,500;26846,459;89,93275
 882,68;23459,729;  303,500;25509,459;91,86807
 883,24;23898,596;  656,500;25745,459;92,63874
 883,79;24480,396; 1452,500;26859,459;90,63618
 884,35;23972,629;  973,500;26497,459;90,10800
 884,91;22558,996; -363,500;25534,459;88,51082
 885,47;23553,129;  634,500;26674,459;88,01331
 886,03;23469,396;  576,500;26210,459;89,30691
 886,59;22711,596; -115,500;25559,459;88,90801
 887,14;23854,795; 1039,500;26880,459;88,29121
 887,70;22470,930; -555,500;25648,459;87,87386
 888,26;24288,430; 1217,500;27736,459;86,99787
 888,82;23775,096;  432,500;27284,459;86,93070
 889,38;24415,529;  984,500;27849,459;87,21781
 889,93;23882,662;  290,500;27089,459;88,03388
 890,49;23617,695; -379,500;26333,459;89,83353
 891,05;23997,662; -196,500;26395,459;90,98300
 891,61;24720,330;  370,500;27263,459;90,54351
 892,17;25095,396;  606,500;28176,459;88,82457
 892,72;24128,896; -188,500;28056,459;86,09464
 893,28;24456,195;  204,500;28960,459;84,33624
 893,84;23650,295; -407,500;28109,459;84,36312
 894,40;24579,629;  635,500;29283,459;83,58058
 894,95;23688,396; -392,500;28119,459;84,45893
 895,51;24336,629;  226,500;29015,459;83,74783
 896,07;24251,063;  -31,500;29195,459;83,08275
 896,63;23979,162; -377,500;28934,459;83,09462
 897,18;24758,330;  424,500;29869,459;82,64175
 897,74;24706,262;  146,500;29835,459;82,72355
 898,30;24317,830; -382,500;29233,459;83,40209
 898,85;25291,729;  348,500;29731,459;84,89012
 899,41;26111,662;  857,500;30308,459;85,74988
 899,97;25362,596; -439,500;29604,459;85,88114
 900,53;26345,563;  445,500;30033,459;87,53582
 901,08;25932,162; -292,500;29750,459;87,29054
 901,64;26819,129;  632,500;30267,459;88,36398
 902,20;25939,029;   -8,500;29547,459;87,79119
 902,75;25824,330;  196,500;29363,459;87,86597
 903,31;25369,996;   -8,500;28912,459;87,75123
 903,87;25075,129;  -91,500;29016,459;86,45961
 904,42;25507,629;  634,500;29723,459;85,50711
 904,98;24984,896;  512,500;29801,459;83,55502
 905,54;24403,863;  282,500;29233,459;83,31801
 906,09;23949,029;  186,500;28415,459;84,17784
 906,65;23112,795; -411,500;27045,459;85,67699
 907,21;23790,795;  479,500;27589,459;85,98794
 907,76;23217,396;  -65,500;26732,459;86,88310
 908,32;23509,096;   11,500;27250,459;86,26466
 908,88;23467,695;  -74,500;27579,459;85,13137
 909,43;24739,629;  962,500;29032,459;84,70667
 909,99;24020,662;  298,500;28158,459;85,14787
 910,54;24039,463;  291,500;27813,459;86,28733
 911,10;25056,129; 1300,500;28452,459;87,49140
 911,66;25494,930; 1931,500;28625,459;88,27252
 912,21;24348,762;  509,500;27743,459;87,53506
 912,77;23787,762; -198,500;27000,459;88,18816
 913,33;24975,363;  994,500;28736,459;86,44257
 913,88;24258,195;  340,500;28145,459;86,01953
 914,44;23280,396; -425,500;27476,459;84,96141
 914,99;23239,695;  -96,500;27091,459;85,83283
 915,55;23345,129;  391,500;27721,459;83,98706
 916,10;23023,029;  379,500;27661,459;82,99818
 916,66;23112,896;  614,500;27746,459;82,92212
 917,22;21904,762; -176,500;26595,459;82,47907
 917,77;21448,863; -493,500;25895,459;83,14979
 918,33;22844,662; 1060,500;27034,459;83,86924
 918,88;21987,496;  420,500;25678,459;85,38693
 919,44;21496,795;  213,500;25110,459;85,48552
 919,99;21754,830;  568,500;24977,459;86,79735
 920,55;22254,096; 1179,500;25617,459;86,23714
 921,10;21365,029;  146,500;24576,459;86,85454
 921,66;21778,430;  676,500;25326,459;85,60635
 922,21;21561,229;  189,500;25046,459;85,97885
 922,77;21904,963;  554,500;25604,459;85,23153
 923,32;23104,096; 2030,500;26714,459;85,37365
 923,88;22118,729;  937,500;25289,459;86,97957
 924,43;21628,762;  542,500;24536,459;87,88154
 924,99;21450,229;  449,500;24406,459;87,66024
 925,54;20928,963;    1,500;24455,459;85,57904
 926,10;20688,162; -310,500;24528,459;84,53922
 926,65;21764,496;  907,500;25954,459;83,27157
 927,21;21876,063; 1037,500;25713,459;84,44885
 927,76;21322,529;  691,500;25262,459;83,96510
 928,32;20087,029; -470,500;23799,459;84,70360
 928,87;20612,063;  229,500;23795,459;86,49155
 929,43;20503,496;  240,500;23220,459;88,17682
 929,98;20037,896;  -58,500;22836,459;87,77651
 930,54;20129,963;  -49,500;22858,459;88,08931
 931,09;19613,930; -240,500;22419,459;87,61900
 931,65;20012,262;  287,500;23303,459;85,70037
 932,20;20086,963;  628,500;23393,459;85,47550
 932,76;19885,463;  519,500;23621,459;83,82823
 933,31;20131,096;  843,500;23912,459;83,60844
 933,86;19601,863;  304,500;23153,459;84,45620
 934,42;19236,129;   14,500;23001,459;83,61971
 934,97;18949,863;  -23,500;22726,459;83,39955
 935,53;18665,195;  262,500;22498,459;82,76097
 936,08;17673,096;  -31,500;21833,459;80,97246
 936,63;16456,863; -127,500;20878,459;78,95076
 937,19;17161,930;  955,500;21274,459;79,76014
 937,74;15859,829;  344,500;19360,459;81,59109
 938,30;15774,263;  635,500;18842,459;83,14822
 938,85;14755,129; -149,500;17058,459;86,61474
 939,40;15549,162; 1008,500;17552,459;87,89107
 939,96;14617,963;  650,500;16160,458;90,05481
 940,51;13636,929;  166,500;14803,458;92,03025
 941,06;13759,796;  916,500;15080,458;90,67590
 941,62;12890,296;  575,500;14328,458;89,54289
 942,17;12624,662;  912,500;14513,458;86,11277
 942,73;13479,963; 1867,500;15763,458;83,56720
 943,28;11052,429; -312,500;13705,458;81,07407
 943,83;11532,096;  278,500;14045,458;81,74352
 944,39;11159,996; -105,500;13461,458;83,03627
 944,94;11624,662;  408,500;14100,458;81,91788
 945,49;13649,696; 2444,500;15937,458;83,04477
 946,05;11025,162; -455,500;13050,458;85,00443
 946,60;12248,929;  653,500;14290,458;85,02944
 947,15;11376,496; -276,500;12968,458;87,98062
 947,70;12103,662;  218,500;13733,458;87,94080
 948,26;12227,496;  214,500;13562,458;89,99876
 948,81;11946,596;  -87,500;13186,458;90,65944
 949,36;12085,729; -126,500;13442,458;90,00123
 949,92;12828,929;  668,500;14391,458;88,61376
 950,47;12961,996;  479,500;14670,458;87,96091
 951,02;13101,662;  373,500;14990,458;87,07805
 951,57;14400,263; 1440,500;16306,458;87,17745
 952,13;14394,096; 1093,500;16440,459;86,66600
 952,68;14329,463;  764,500;16519,459;86,09964
 953,23;15514,696; 1744,500;17642,459;86,61613
 953,79;14422,463;  741,500;16586,459;86,34268
 954,34;13897,529;  294,500;16020,458;86,50048
 954,89;13485,362;  -44,500;15713,458;85,86050
 955,44;13537,263;  184,500;15699,458;86,06380
 955,99;13853,829;  518,500;15974,458;86,27954
 956,55;13669,496;  241,500;15960,458;85,42548
 957,10;13569,896;  143,500;16103,458;84,12551
 957,65;13863,796;  258,500;16382,458;84,37938
 958,20;14075,096;  314,500;17141,459;81,77708
 958,76;14638,862;  781,500;17504,459;82,86430
 959,31;14652,662;  659,500;17491,459;83,13448
 959,86;13781,829; -321,500;16705,459;82,82941
 960,41;14219,229;   11,500;17110,459;83,09120
 960,96;18105,762; 3723,500;21152,459;82,51934
 961,52;14676,529; -244,500;17573,459;83,74152
 962,07;15775,296;  714,500;18543,459;84,47378
 962,62;15854,063;  655,500;18678,459;84,32890
 963,17;15588,396;  328,500;18358,459;84,63633
 963,72;14801,662; -287,500;17835,459;83,25993
 964,27;15364,896;  606,500;18096,459;84,38210
 964,83;14435,729; -466,500;17199,459;84,35562
 965,38;14937,162;  -79,500;17458,459;85,62377
 965,93;15568,362;  288,500;17928,459;86,62074
 966,48;15626,263;  254,500;17949,459;86,87086
 967,03;16334,796; 1035,500;18369,459;88,26198
 967,58;15932,129;  721,500;18211,459;86,96778
 968,13;15433,296;  472,500;17888,459;85,90280
 968,69;17256,330; 2538,500;19739,459;85,56401
 969,24;14833,563;  -28,500;17338,459;85,57665
 969,79;14614,696; -391,500;16858,459;86,99265
 970,34;15174,329;   15,500;17167,459;88,37958
 970,89;15837,429;  686,500;17605,459;89,55001
 971,44;15290,396;   29,500;17051,459;89,65417
 971,99;16286,862; 1432,500;18150,459;88,85273
 972,54;15154,563;  350,500;16908,459;89,40753
 973,09;14162,696; -467,500;16189,458;87,83234
 973,64;14489,563;  -46,500;16574,459;87,45622
 974,20;15038,463;  685,500;17199,459;86,91412
 974,75;16201,429; 1736,500;18144,459;88,15800
 975,30;15106,263;  391,500;17341,459;86,81297
 975,85;20423,896; 5946,500;22802,459;85,88889
 976,40;15164,229;  401,500;17672,459;85,47718
 976,95;14707,329;   53,500;17311,459;84,91056
 977,50;15033,763;  836,500;17911,459;83,14669
 978,05;14962,729;  706,500;17642,459;84,17728
 978,60;13673,129; -456,500;16240,458;84,62397
 979,15;15510,763; 1539,500;18377,459;82,97480
 979,70;13945,229; -110,500;16761,459;83,30822
 980,25;13911,696; -237,500;16935,459;82,39230
 980,80;14112,263;  -14,500;17184,459;82,13731
 981,35;14246,563;   62,500;17107,459;83,21559
 981,90;13951,929;  -63,500;17024,459;82,01933
 982,45;15022,929; 1377,500;17822,459;82,97636
 983,00;14775,529; 1361,500;17433,459;83,46232
 983,55;13712,763;  593,500;16683,459;81,53696
 984,10;13289,796;  103,500;16119,458;82,33223
 984,65;13601,662;  456,500;16675,459;81,04812
 985,20;14055,563;  697,500;17044,459;81,71589
 985,75;14253,496;  953,500;17202,459;81,85137
 986,30;13409,896;  239,500;16169,458;82,67690
 986,85;13785,862;  380,500;16379,458;83,78897
 987,40;13935,029;  814,500;16461,459;83,85354
 987,95;13116,496;   23,500;15739,458;83,31020
 988,50;13146,129;  473,500;15354,458;85,16003
 989,05;13984,996; 1082,500;16264,458;84,98572
 989,60;13557,596;  770,500;16099,458;83,41791
 990,15;13476,629;  643,500;15924,458;83,98118
 990,70;14195,662; 1170,500;16713,459;83,80105
 991,25;13028,929;  363,500;15600,458;83,12308
 991,79;12481,296; -208,500;14685,458;85,20096
 992,34;13700,029; 1149,500;15945,458;84,82404
 992,89;15862,296; 3618,500;18175,459;84,10957
 993,44;12428,396;  531,500;14660,458;84,20221
 993,99;11855,496;   22,500;13981,458;84,76991
 994,54;12130,996;  360,500;14336,458;84,21960
 995,09;11830,029;  183,500;14060,458;83,92711
 995,64;12548,429; 1009,500;14889,458;83,13374
 996,19;11286,996; -173,500;13459,458;84,06463
 996,74;12529,996; 1145,500;14756,458;83,64214
 997,28;11191,329;   68,500;13425,458;83,27367
 997,83;10541,229; -209,500;12619,458;83,80049
 998,38;10589,829;   15,500;12820,458;82,57996
 998,93;10672,096;  285,500;12937,458;82,09477
 999,48;10569,529;  127,500;13073,458;80,65861
1000,03;12651,396; 2120,500;15304,458;79,87659
1000,58;10759,596;   41,500;13151,458;81,75538
1001,12;11861,896; 1208,500;13983,458;83,39280
1001,67;11028,896;  437,500;13094,458;83,68042
1002,22;11582,429; 1110,500;13504,458;84,49221
1002,77;11352,329; 1144,500;13127,458;85,18622
1003,32;10169,329;   61,500;12049,458;84,31652
1003,86;11015,529; 1228,500;12799,458;84,58271
1004,41;10262,029;  435,500;12202,458;83,50951
1004,96; 9821,029;   61,500;11757,458;83,44361
1005,51;10090,229;  364,500;11931,458;84,08200
1006,06;11252,196; 1787,500;13010,458;84,33335
1006,60; 9480,896;   18,500;11045,458;85,81148
1007,15;10398,029; 1032,500;12238,458;83,57634
1007,70;10066,929;  787,500;11942,458;83,18659
1008,25; 9380,929;  318,500;11081,458;84,20017
1008,80; 8792,763; -377,500;10866,458;81,55725
1009,34;10017,362; 1141,500;11858,458;82,82072
1009,89; 9665,563;  588,500;11458,458;83,50596
1010,44; 9257,629;  150,500;11270,458;81,89895
1010,99; 9556,696;  425,500;11374,458;83,39786
1011,53; 8866,763; -262,500;10776,458;82,70040
1012,08; 8796,296; -344,500;10718,458;82,62524
1012,63; 9539,563;  360,500;11248,458;84,30472
1013,18; 9461,829;  315,500;11408,458;82,45167
1013,72; 9898,629;  489,500;11896,458;82,48587
1014,27; 9676,763;   47,500;11569,458;83,57315
1014,82;10800,896;  936,500;12914,458;82,35457
1015,36;10324,963;  208,500;12353,458;83,29764
1015,91;10495,763;  254,500;12285,458;85,12425
1016,46;10688,029;  379,500;12399,458;85,76177
1017,01;10205,696;   96,500;11838,458;86,09464
1017,55; 9886,563; -159,500;11346,458;87,31183
1018,10;10356,229;  496,500;11670,458;88,23847
1018,65;10173,063;  475,500;11478,458;88,13596
1019,19;10207,263;  796,500;11739,458;85,99834
1019,74;10017,263;  720,500;11410,458;86,96725
1020,29; 9978,162;  548,500;11522,458;85,92763
1020,83; 9657,596;  502,500;11246,458;85,21157
1021,38; 9808,963;  794,500;11586,458;83,52945
1021,93; 9097,096;  234,500;10665,458;84,96435
1022,47; 8892,529;  244,500;10538,458;84,01073
1023,02; 8280,263; -287,500; 9738,458;85,45580
1023,56; 9560,129; 1253,500;11056,458;84,73594
1024,11; 8067,263; -334,500; 9502,458;85,41017
1024,66; 8941,862;  553,500;10320,458;85,88511
1025,20; 8122,396; -341,500; 9346,458;87,36512
1025,75; 8589,929;  178,500; 9828,458;87,16544
1026,30; 8915,329;  471,500; 9895,458;89,59960
1026,84; 8200,263; -216,500; 9320,458;88,25417
1027,39; 9004,063;  793,500; 9975,458;89,42061
1027,93; 8064,529;   25,500; 9262,458;87,03113
1028,48; 8445,929;  427,500; 9611,458;87,30907
1029,03; 8706,929; 1128,500; 9649,458;88,93869
1029,57; 7711,596;  230,500; 8753,458;87,77581
1030,12; 7427,663;  159,500; 8623,458;85,87191
1030,66; 7486,229;  363,500; 8418,458;88,42664
1031,21; 7456,362;  452,500; 8903,458;82,87655
1031,75; 9342,496; 2524,500;10914,458;81,26377
1032,30; 7399,496;  655,500; 8910,458;81,69630
1032,84; 7463,729;  658,500; 8999,458;81,58810
1033,39; 6809,962;  242,500; 8114,458;83,42857
1033,94; 6360,329; -113,500; 7853,458;81,25848
1034,48; 7425,929; 1106,500; 8986,458;80,19623
1035,03; 7145,563;  802,500; 8722,458;80,08960
1035,57; 6419,896;  163,500; 7783,458;82,10538
1036,12; 5976,796; -158,500; 7410,458;81,05865
1036,66; 6724,129;  509,500; 7992,458;83,05043
1037,21; 5857,129; -244,500; 7052,458;83,61880
1037,75; 7424,196; 1547,500; 8564,458;83,74991
1038,30; 6442,663;  582,500; 7373,458;86,29360
1038,84; 5902,862;   73,500; 6724,458;87,64695
1039,39; 5498,729; -208,500; 6497,458;85,10683
1039,93; 6264,996;  790,500; 7315,458;83,90085
1040,48; 5877,996;  464,500; 7049,458;82,21002
1041,02; 6210,596;  873,500; 7580,458;79,57550
1041,57; 5907,396;  655,500; 7253,458;79,59880
1042,11; 6247,263; 1100,500; 7630,458;78,81769
1042,66; 5537,829;  315,500; 6873,458;79,63346
1043,20; 4889,962; -317,500; 6136,458;80,68633
1043,74; 5647,029;  543,500; 6819,458;81,31872
1044,29; 6115,063; 1296,500; 7154,458;82,25669
1044,83; 5367,763;  546,500; 6322,458;83,47121
1045,38; 4799,196;  158,500; 5834,458;81,76057
1045,92; 4239,896; -170,500; 5193,458;82,22278
1046,47; 4576,462;  172,500; 5527,458;82,24083
1047,01; 5150,129;  708,500; 6038,458;83,33328
1047,55; 4740,029;  485,500; 5528,458;84,36574
1048,10; 4054,596; -328,500; 4994,458;82,34323
1048,64; 4763,563;  523,500; 5764,458;80,90242
1049,19; 4667,563;  456,500; 5557,458;82,55434
1049,73; 4709,129;  590,500; 5584,458;82,47224
1050,27; 4331,596;  111,500; 5207,458;82,81260
1050,82; 4353,063;  254,500; 5250,458;82,03756
1051,36; 4097,862;  136,500; 4923,458;82,75322
1051,91; 4529,462;  652,500; 5488,458;80,16947
1052,45; 4389,196;  613,500; 5235,458;81,69039
1052,99; 3966,396;  130,500; 4859,458;81,11502
1053,54; 4204,596;  485,500; 5080,458;80,93861
1054,08; 3618,063; -235,500; 4541,458;80,66979
1054,62; 4334,962;  602,500; 5279,458;79,80534
1055,17; 4452,896;  869,500; 5479,458;77,73163
1055,71; 4103,629;  523,500; 5139,458;77,55983
1056,25; 6865,896; 3447,500; 7869,458;77,30502
1056,80; 4321,663;  840,500; 5212,458;79,62479
1057,34; 3146,229; -230,500; 3971,458;80,36085
1057,88; 3486,229;  277,500; 4333,458;79,11149
1058,43; 3990,429;  754,500; 4703,458;81,94386
1058,97; 3700,329;  434,500; 4390,458;82,55469
1059,51; 3804,196;  692,500; 4383,458;84,30590
1060,06; 4418,729; 1251,500; 5123,458;81,79915
1060,60; 3321,563;  323,500; 3796,458;86,32590
1061,14; 3232,329;  317,500; 3923,458;80,83369
1061,68; 3313,529;  469,500; 4012,458;80,27272
1062,23; 5521,896; 2776,500; 6221,458;79,69315
1062,77; 3368,962;  590,500; 3921,458;83,41331
1063,31; 3362,729;  578,500; 4077,458;79,57309
1063,85; 3759,729;  923,500; 4189,458;86,84217
1064,40; 2894,796;  167,500; 3411,458;84,07309
1064,94; 2976,663;  170,500; 3426,458;86,18546
1065,48; 3080,596;  405,500; 3674,458;81,83329
1066,02; 3597,462;  993,500; 4128,458;83,06210
1066,57; 2797,429;  256,500; 3342,458;82,33842
1067,11; 2792,896;  128,500; 3297,458;84,07797
1067,65; 3086,096;  603,500; 3472,458;86,53301
1068,19; 3118,796;  553,500; 3520,458;86,46215
1068,74; 2767,096;  129,500; 3117,458;88,27419
1069,28; 4537,663; 2038,500; 4882,458;87,87620
1069,82; 3035,863;  538,500; 3358,458;88,56027
1070,36; 2579,363;  186,500; 2949,458;86,60509
1070,90; 6304,496; 3915,500; 6659,458;87,06384
1071,45; 2632,762;  305,500; 3176,458;81,06222
1071,99; 2847,762;  689,500; 3218,458;85,34196
1072,53; 2610,696;  401,500; 3072,458;82,71173
1073,07; 2589,129;  485,500; 3158,458;78,70041
1073,61; 2333,462;  302,500; 2685,458;85,22862
1074,15; 2659,262;  631,500; 3079,458;82,83485
1074,70; 2740,896;  719,500; 3236,458;80,31106
1075,24; 2339,729;  427,500; 2891,458;77,60802
1075,78; 2095,296;   83,500; 2718,458;76,35020
1076,32; 2491,829;  513,500; 3000,458;79,54814
1076,86; 2227,462;  308,500; 2741,458;78,87363
1077,40; 3337,596; 1486,500; 3937,458;75,52540
1077,94; 2997,329; 1162,500; 3485,458;78,98674
1078,49; 1792,963;  -65,500; 2186,458;82,52651
1079,03; 1981,429;  213,500; 2441,458;79,35199
1079,57; 2469,229;  734,500; 2946,458;78,42504
1080,11; 2734,962; 1053,500; 3228,458;77,31010
1080,65; 2927,329; 1349,500; 3254,458;82,82749
1081,19; 4169,896; 2629,500; 4764,458;72,15110
1081,73; 1942,863;  355,500; 2472,458;74,98318
1082,27; 1886,863;  223,500; 2134,458;87,04337
1082,81; 1589,229;  -54,500; 1963,458;81,45506
1083,35; 2004,296;  319,500; 2376,458;81,90714
1083,89; 2138,863;  583,500; 2441,458;83,71354
1084,44; 3525,329; 1974,500; 3825,458;83,78520
1084,98; 2181,096;  644,500; 2440,458;85,55856
1085,52; 1816,896;  335,500; 2137,458;82,21033
1086,06; 1460,563;  -33,500; 1709,458;85,71992
1086,60; 1874,429;  294,500; 2184,458;83,59598
1087,14; 1502,863;    5,500; 1876,458;80,03185
1087,68; 2147,163;  680,500; 2399,458;85,32276
1088,22; 1879,529;  498,500; 2246,458;79,00813
1088,76; 2812,796; 1419,500; 3248,458;76,17975
1089,30; 1366,629;  -38,500; 1765,458;77,89144
1089,84; 1793,296;  343,500; 2227,458;76,95477
1090,38; 2995,629; 1594,500; 3349,458;79,83832
1090,92; 1675,429;  339,500; 1950,458;82,92761
1091,46; 2007,762;  648,500; 2297,458;82,43159
1092,00; 2030,729;  763,500; 2296,458;82,66560
1092,54; 1548,429;  336,500; 1809,458;82,27858
1093,08; 2363,063; 1051,500; 2688,458;80,12193
1093,62; 1612,296;  314,500; 1930,458;80,31121
1094,16; 1093,662; -109,500; 1282,458;86,43667
1094,70; 1128,929; -163,500; 1421,458;81,54342
1095,24; 1609,563;  424,500; 1942,458;78,06950
1095,78; 1552,129;  392,500; 1809,458;81,83932
1096,32; 1413,629;  147,500; 1772,458;77,91764
1096,86; 1592,529;  459,500; 1890,458;79,17974
1097,40; 1744,696;  632,500; 2162,458;72,69452
1097,93; 2922,296; 1864,500; 3122,458;84,08832
1098,47; 1800,196;  670,500; 2014,458;84,05735
1099,01; 2079,496; 1066,500; 2435,458;73,99757
1099,55; 1707,329;  694,500; 1984,458;78,51643
1100,09; 1118,496;   -7,500; 1308,458;85,56470

