
Integration time [ms]: 4000,000
Averaging Nr. [scans]: 10
Smoothing Nr. [pixels]: 0
Data measured with spectrometer [name]: 1803151U1
Wave   ;Sample   ;Dark     ;Reference;Transmittance
[nm]   ;[counts] ;[counts] ;[counts] ;[%]

 195,95; 2470,653; 2512,211; 2478,307; 0,00000
 196,55; 2165,932; 2248,177; 2092,074; 0,00000
 197,15; 1784,768; 1889,168; 1952,600;-164,58610
 197,76; 3225,679; 3337,208; 3317,415; 0,00000
 198,36; 1847,248; 1977,179; 1944,763; 0,00000
 198,96; 2928,756; 2924,209; 3019,875; 4,75364
 199,56; 2244,660; 2350,196; 2275,022; 0,00000
 200,16; 1903,191; 1989,201; 2096,117;-80,44647
 200,76; 1512,806; 1685,215; 1624,943; 0,00000
 201,36; 3446,453; 3433,245; 3459,283;50,72431
 201,96; 1589,796; 1810,244; 1604,081; 0,00000
 202,56; 2254,919; 2387,230; 2371,485; 0,00000
 203,16; 2424,891; 2437,212; 2539,537;-12,04035
 203,76; 1878,495; 1921,209; 1955,104;-126,02011
 204,36; 1538,044; 1623,205; 1658,752;-239,56704
 204,96; 2277,071; 2441,189; 2334,724; 0,00000
 205,56; 1914,727; 2036,169; 2056,087;-609,70466
 206,16; 1608,763; 1647,182; 1741,169;-40,87778
 206,76; 1971,211; 2095,177; 2063,817; 0,00000
 207,36; 2790,241; 2848,195; 2791,049; 0,00000
 207,96; 2727,307; 2813,180; 2953,250;-61,30668
 208,56; 2322,783; 2438,205; 2368,982; 0,00000
 209,16; 1875,988; 1922,191; 1919,413; 0,00000
 209,76; 1471,025; 1522,193; 1556,359;-149,76098
 210,36; 1697,647; 1836,191; 1754,900; 0,00000
 210,96; 2066,266; 2125,203; 2216,293;-64,70197
 211,56; 1980,098; 2061,196; 2074,251;-621,19348
 212,16; 4341,717; 4457,174; 4516,668;-194,06613
 212,76; 1769,027; 1847,169; 1897,087;-156,53978
 213,36; 2620,878; 2664,197; 2608,995; 0,00000
 213,96; 2293,598; 2441,196; 2385,251; 0,00000
 214,56; 2039,415; 2139,175; 2136,385; 0,00000
 215,16; 1936,211; 2019,177; 2035,817;-498,60467
 215,76; 3881,695; 4018,209; 3966,104; 0,00000
 216,36; 1509,929; 1672,190; 1545,927; 0,00000
 216,96; 3282,547; 3403,214; 3412,456;-1305,68764
 217,56; 1796,194; 1916,188; 1869,264; 0,00000
 218,16; 2296,839; 2392,219; 2328,321; 0,00000
 218,75; 1592,302; 1669,194; 1593,819; 0,00000
 219,35; 1736,400; 1884,184; 1882,115; 0,00000
 219,95; 2381,578; 2354,173; 2307,438; 0,00000
 220,55; 2098,722; 2260,183; 2155,656; 0,00000
 221,15; 2989,228; 2926,179; 3057,507;48,00861
 221,75; 1920,688; 1985,168; 2024,857;-162,46232
 222,35; 2254,950; 2386,201; 2399,603;-979,33509
 222,95; 3265,257; 3343,186; 3235,318; 0,00000
 223,55; 2989,419; 3174,196; 3195,508;-866,99926
 224,15; 2518,201; 2599,172; 2511,979; 0,00000
 224,75; 2232,903; 2235,171; 2224,262; 0,00000
 225,35; 1873,574; 1933,176; 1922,871; 0,00000
 225,95; 2687,651; 2766,189; 2828,467;-126,10961
 226,55; 1845,059; 1901,185; 1923,602;-250,37192
 227,15; 1847,910; 1968,190; 1906,953; 0,00000
 227,75; 3038,557; 3068,186; 3080,318;-244,21459
 228,34; 2041,209; 2055,168; 2111,114;-24,95112
 228,94; 2541,425; 2671,193; 2621,359; 0,00000
 229,54; 1750,332; 1835,211; 1873,050;-224,31664
 230,14; 2220,495; 2360,198; 2223,684; 0,00000
 230,74; 1756,981; 1818,206; 1803,698; 0,00000
 231,34; 1854,605; 1932,204; 1887,523; 0,00000
 231,94; 2336,475; 2514,210; 2579,847;-270,78169
 232,54; 1758,727; 1828,203; 1927,063;-70,27591
 233,14; 2350,820; 2258,207; 2341,928;110,62020
 233,74; 1825,587; 1933,214; 1949,969;-642,33613
 234,33; 1831,995; 1958,198; 1864,684; 0,00000
 234,93; 1861,552; 1895,177; 1918,331;-145,22473
 235,53; 1886,964; 1866,193; 1891,589;81,78589
 236,13; 2185,170; 2229,201; 2294,860;-67,05957
 236,73; 2153,520; 2391,218; 2233,348; 0,00000
 237,33; 2198,992; 2293,166; 2311,424;-515,77681
 237,93; 3364,200; 3516,195; 3338,535; 0,00000
 238,53; 1886,644; 1915,182; 1922,196;-406,83756
 239,12; 3715,920; 3789,184; 3831,372;-173,66219
 239,72; 3058,501; 3098,206; 3120,955;-174,53423
 240,32; 1287,315; 1577,232; 1335,917; 0,00000
 240,92; 1364,762; 1418,194; 1419,305;-4809,60334
 241,52; 1730,170; 1870,201; 1887,860;-792,96918
 242,12; 2624,516; 2711,186; 2602,805; 0,00000
 242,72; 1699,967; 1863,191; 1833,156; 0,00000
 243,31; 1772,996; 1711,197; 1883,968;35,76946
 243,91; 2179,202; 2297,194; 2153,819; 0,00000
 244,51; 1452,742; 1471,206; 1372,469; 0,00000
 245,11; 4157,015; 4298,198; 4225,941; 0,00000
 245,71; 2756,696; 2738,187; 2859,548;15,25138
 246,31; 3210,266; 3422,203; 3267,293; 0,00000
 246,90; 3543,042; 3551,206; 3625,469;-10,99313
 247,50; 1693,181; 1878,206; 1860,698; 0,00000
 248,10; 2107,877; 2245,208; 2241,131; 0,00000
 248,70; 1252,665; 1439,181; 1336,453; 0,00000
 249,30; 2078,963; 2143,217; 2215,146;-89,32900
 249,90; 1698,088; 1796,225; 1854,390;-168,72256
 250,49; 1938,561; 2091,218; 1992,862; 0,00000
 251,09; 1779,674; 1853,199; 1913,427;-122,07566
 251,69; 2308,354; 2432,199; 2479,171;-263,65933
 252,29; 2196,811; 2296,200; 2335,374;-253,71853
 252,89; 2046,244; 2158,228; 2292,309;-83,51964
 253,48; 1980,642; 2050,206; 2038,469; 0,00000
 254,08; 1324,125; 1391,193; 1317,359; 0,00000
 254,68; 1237,620; 1292,207; 1299,928;-706,98160
 255,28; 1988,673; 2166,211; 2158,564; 0,00000
 255,88; 2003,825; 2025,193; 2183,359;-13,50983
 256,47; 1315,000; 1477,195; 1346,535; 0,00000
 257,07; 1967,239; 2022,196; 1989,765; 0,00000
 257,67; 2419,509; 2516,168; 2566,114;-193,52814
 258,27; 2099,658; 2125,208; 2267,158;-17,99879
 258,86; 2588,646; 2807,180; 2628,480; 0,00000
 259,46; 1747,043; 1821,228; 1737,309; 0,00000
 260,06; 1899,341; 1989,218; 1992,605;-2653,42367
 260,66; 1915,925; 2100,227; 1906,336; 0,00000
 261,26; 3115,307; 3119,203; 3137,806;-20,94122
 261,85; 1248,037; 1372,220; 1391,038;-659,93033
 262,45; 2020,809; 2149,202; 2033,090; 0,00000
 263,05; 1895,450; 1985,201; 1995,603;-862,80936
 263,65; 1201,564; 1328,227; 1383,565;-228,89050
 264,24; 2764,208; 2882,180; 2818,250; 0,00000
 264,84; 2290,025; 2400,204; 2371,779; 0,00000
 265,44; 2480,295; 2567,209; 2661,104;-92,56539
 266,04; 1607,543; 1699,228; 1649,309; 0,00000
 266,63; 1702,127; 1826,192; 1727,643; 0,00000
 267,23; 1161,584; 1167,227; 1168,822;-353,78846
 267,83; 1953,764; 2038,193; 2000,589; 0,00000
 268,42; 1544,731; 1568,200; 1638,630;-33,32247
 269,02; 2908,741; 2966,229; 2994,025;-206,81575
 269,62; 2006,858; 2085,197; 1967,738; 0,00000
 270,22; 1088,734; 1248,210; 1167,334; 0,00000
 270,81; 1973,708; 2089,191; 2049,670; 0,00000
 271,41; 1914,344; 2144,239; 2007,729; 0,00000
 272,01; 2014,468; 2081,202; 2139,576;-114,32073
 272,61; 1938,267; 1929,191; 1999,156;12,97258
 273,20; 2385,250; 2612,235; 2487,580; 0,00000
 273,80; 1558,708; 1667,214; 1630,226; 0,00000
 274,40; 1357,686; 1486,215; 1295,686; 0,00000
 274,99; 1883,382; 2101,228; 1993,539; 0,00000
 275,59; 2279,469; 2333,213; 2291,996; 0,00000
 276,19; 2593,992; 2646,223; 2626,957; 0,00000
 276,78; 1957,006; 2088,192; 2109,386;-618,96570
 277,38; 1514,949; 1587,190; 1580,183; 0,00000
 277,98; 1699,074; 1877,222; 1874,984; 0,00000
 278,57; 1529,767; 1695,191; 1500,156; 0,00000
 279,17; 1844,204; 1921,193; 1851,103; 0,00000
 279,77; 4119,023; 4198,194; 4182,076; 0,00000
 280,37; 1782,665; 1924,238; 1844,985; 0,00000
 280,96; 1441,737; 1501,220; 1550,038;-121,84795
 281,56; 1188,853; 1214,211; 1255,307;-61,70565
 282,16; 1434,933; 1549,222; 1596,470;-241,89213
 282,75; 1338,478; 1387,173; 1306,438; 0,00000
 283,35; 1745,660; 1704,230; 1774,998;58,54364
 283,95; 1802,627; 1859,226; 1827,619; 0,00000
 284,54; 1563,807; 1545,226; 1699,363;12,05476
 285,14; 1849,768; 1953,225; 1907,133; 0,00000
 285,73; 2187,036; 2212,209; 2248,618;-69,13968
 286,33; 1435,796; 1524,220; 1481,524; 0,00000
 286,93; 1532,668; 1566,225; 1536,133; 0,00000
 287,52; 1968,732; 2235,234; 2013,607; 0,00000
 288,12; 2256,946; 2309,238; 2360,012;-102,98643
 288,72; 2383,861; 2490,241; 2425,418; 0,00000
 289,31; 2229,609; 2248,225; 2264,646;-113,36564
 289,91; 2969,308; 3013,214; 2983,226; 0,00000
 290,51; 1845,081; 1930,206; 1903,698; 0,00000
 291,10; 2185,285; 2219,204; 2303,266;-40,35061
 291,70; 1415,130; 1543,246; 1473,743; 0,00000
 292,29; 2044,356; 2086,198; 2125,454;-106,58603
 292,89; 1644,420; 1583,207; 1645,928;97,59465
 293,49; 2140,833; 2343,222; 2176,470; 0,00000
 294,08; 1076,151; 1244,223; 1180,443; 0,00000
 294,68; 1398,845; 1524,216; 1476,172; 0,00000
 295,28; 1877,269; 1973,213; 1854,996; 0,00000
 295,87; 1682,833; 1670,199; 1772,914;12,30024
 296,47; 1766,230; 1810,212; 1925,767;-38,06195
 297,06; 2103,449; 2246,213; 2154,740; 0,00000
 297,66; 1146,497; 1230,231; 1171,944; 0,00000
 298,26;  858,786; 1001,226; 1010,106;-1604,09524
 298,85; 2019,451; 2011,212; 2005,023; 0,00000
 299,45; 1650,396; 1737,197; 1687,968; 0,00000
 300,04; 1616,266; 1731,203; 1748,293;-672,56013
 300,64; 1710,222; 1835,183; 1774,656; 0,00000
 301,23; 2052,660; 2145,230; 2000,998; 0,00000
 301,83; 1799,305; 1820,204; 1823,523;-629,72377
 302,43; 1877,347; 1863,225; 2007,876; 9,76280
 303,02; 1490,365; 1508,181; 1526,453;-97,51002
 303,62; 1614,646; 1624,203; 1686,036;-15,45727
 304,21; 2265,580; 2335,172; 2335,722; 0,00000
 304,81; 2352,374; 2406,199; 2490,427;-63,90300
 305,40; 1786,302; 1888,183; 1956,399;-149,35194
 306,00; 1717,563; 1844,216; 1800,145; 0,00000
 306,59; 1952,400; 1864,195; 2033,535;52,08764
 307,19; 1238,671; 1366,212; 1307,280; 0,00000
 307,79; 1689,648; 1783,202; 1770,320; 0,00000
 308,38; 1777,129; 1870,144; 1960,814;-102,58696
 308,98; 1217,895; 1278,198; 1387,684;-55,07929
 309,57; 1244,215; 1302,232; 1349,917;-121,66729
 310,17; 1960,449; 2087,328; 2086,805; 0,00000
 310,76; 2239,789; 2448,350; 2320,875; 0,00000
 311,36; 1623,922; 1691,263; 1652,745; 0,00000
 311,95; 1274,976; 1473,198; 1294,711; 0,00000
 312,55; 3027,268; 3163,259; 3240,109;-176,95670
 313,14; 1010,956; 1094,232; 1100,431;-1343,40797
 313,74; 1152,826; 1356,215; 1248,199; 0,00000
 314,33; 1986,378; 1984,197; 1922,995; 0,00000
 314,93; 2143,683; 2227,205; 2242,982;-529,39866
 315,52; 1987,465; 2056,215; 2013,429; 0,00000
 316,12; 1644,229; 1705,201; 1681,347; 0,00000
 316,71; 5224,313; 5380,223; 5305,213; 0,00000
 317,31;  839,522;  832,217;  892,632;12,09206
 317,90; 1370,123; 1406,228; 1509,052;-35,11311
 318,50; 1193,726; 1180,215; 1257,199;17,55103
 319,09; 1028,754; 1143,199; 1043,171; 0,00000
 319,69; 1684,480; 1842,219; 1682,835; 0,00000
 320,28; 1638,738; 1746,208; 1671,901; 0,00000
 320,88; 1487,447; 1595,191; 1536,900; 0,00000
 321,47; 1145,226;  986,215; 1323,199;47,18661
 322,07; 1249,417; 1448,220; 1270,781; 0,00000
 322,66; 1269,499; 1325,207; 1394,672;-80,19668
 323,26; 1272,920; 1353,184; 1211,372; 0,00000
 323,85; 1650,022; 1714,217; 1678,632; 0,00000
 324,45;  800,353;  977,211;  830,307; 0,00000
 325,04; 1180,981; 1254,206; 1236,698; 0,00000
 325,64; 1612,494; 1683,222; 1607,240; 0,00000
 326,23; 1360,249; 1433,213; 1393,740; 0,00000
 326,83; 1945,285; 2037,204; 2163,266;-72,91619
 327,42; 1583,086; 1727,226; 1704,106; 0,00000
 328,01; 1521,275; 1553,210; 1577,847;-129,61770
 328,61;  734,607;  856,226;  801,363; 0,00000
 329,20; 2041,348; 2137,202; 2038,320; 0,00000
 329,80;  821,785;  843,181;  860,709;-122,06487
 330,39; 1482,449; 1520,213; 1506,740; 0,00000
 330,99; 1076,851; 1175,212; 1173,023; 0,00000
 331,58; 1201,312; 1280,212; 1134,794; 0,00000
 332,17; 1908,599; 1979,207; 1954,672; 0,00000
 332,77; 2510,911; 2584,200; 2567,374; 0,00000
 333,36; 1348,223; 1382,194; 1389,076;-493,64257
 333,96;  792,502;  904,217;  744,375; 0,00000
 334,55;  982,729; 1104,190;  863,927; 0,00000
 335,15; 1065,138; 1114,208; 1192,901;-62,35564
 335,74; 1227,331; 1342,200; 1352,630;-1101,33892
 336,33; 1106,712; 1267,212; 1158,794; 0,00000
 336,93; 1408,924; 1518,205; 1483,496; 0,00000
 337,52; 1431,853; 1560,211; 1452,307; 0,00000
 338,12; 1449,785; 1535,204; 1623,266;-96,99945
 338,71; 1389,356; 1601,209; 1484,874; 0,00000
 339,30; 2092,814; 2224,210; 2123,077; 0,00000
 339,90; 1239,559; 1419,242; 1253,134; 0,00000
 340,49; 1368,203; 1452,205; 1493,239;-204,71398
 341,08; 1445,309; 1540,225; 1456,646; 0,00000
 341,68; 1354,912; 1365,212; 1388,794;-43,67649
 342,27; 1900,099; 1946,207; 1921,672; 0,00000
 342,87; 1532,513; 1610,223; 1665,214;-141,31373
 343,46; 2044,167; 2096,191; 2098,156;-2647,06832
 344,05; 1669,591; 1746,212; 1701,537; 0,00000
 344,65; 1946,767; 2023,191; 2100,156;-99,29627
 345,24; 1830,639; 1907,196; 2016,765;-69,87046
 345,83; 2111,431; 2147,189; 2162,210;-238,06258
 346,43; 1079,720; 1126,207; 1106,928; 0,00000
 347,02;  877,471; 1055,189;  914,724; 0,00000
 347,61; 1018,232; 1148,234; 1020,607; 0,00000
 348,21; 2131,631; 2216,200; 2132,630; 0,00000
 348,80;  694,356;  738,209;  661,874; 0,00000
 349,40;  996,181; 1031,206; 1140,698;-31,98920
 349,99; 1145,204; 1148,193; 1266,103;-2,53470
 350,58; 1428,611; 1666,235; 1477,350; 0,00000
 351,18; 1392,909; 1428,202; 1427,090; 0,00000
 351,77; 1100,187; 1195,214; 1170,969; 0,00000
 352,36; 1015,025; 1008,193; 1071,359;10,81590
 352,96;  662,652;  716,200;  755,887;-134,92718
 353,55; 1759,158; 1825,231; 1765,714; 0,00000
 354,14; 1297,314; 1280,210; 1343,077;27,20556
 354,73;  677,668;  806,202;  599,576; 0,00000
 355,33; 1031,797; 1146,197; 1050,968; 0,00000
 355,92; 1355,294; 1422,222; 1506,240;-79,65764
 356,51;  725,417;  801,231;  799,201; 0,00000
 357,11;  937,693; 1008,234;  989,377; 0,00000
 357,70; 1445,117; 1529,254; 1489,757; 0,00000
 358,29; 1039,696; 1067,220; 1121,524;-50,68606
 358,89; 1025,131; 1209,223; 1149,187; 0,00000
 359,48; 1044,689; 1093,259; 1216,366;-39,45386
 360,07; 1908,858; 1912,231; 2043,714;-2,56519
 360,66; 1356,491; 1447,269; 1408,070; 0,00000
 361,26; 2131,047; 2198,282; 2132,409; 0,00000
 361,85; 1266,418; 1233,265; 1348,177;28,85017
 362,44; 1425,973; 1515,302; 1512,073; 0,00000
 363,04; 1063,236; 1020,300; 1123,127;41,75603
 363,63; 1117,587; 1100,317; 1093,615; 0,00000
 364,22; 1484,920; 1455,321; 1556,994;29,11138
 364,81; 1230,313; 1163,337; 1167,279;1698,86673
 365,41; 1898,151; 1782,337; 1881,509;116,78137
 366,00;  773,482;  624,332;  833,184;71,41405
 366,59; 1808,432; 1882,302; 1893,559;-656,21632
 367,18; 3221,743; 3068,308; 3433,398;42,02672
 367,78; 1346,548; 1262,293; 1359,829;86,38377
 368,37; 1187,094; 1067,279; 1213,773;81,78827
 368,96;  990,996;  762,278; 1080,057;71,97399
 369,55; 1699,538; 1523,265; 1793,434;65,24542
 370,15; 1481,404; 1370,273; 1517,192;75,64112
 370,74; 2075,179; 1903,265; 2159,948;66,97528
 371,33; 1718,759; 1618,242; 1747,134;77,98509
 371,92; 2305,492; 2245,280; 2337,490;65,29941
 372,51; 1674,816; 1704,277; 1700,314; 0,00000
 373,11; 1104,424; 1143,296; 1065,005; 0,00000
 373,70; 1034,718; 1190,299; 1072,154; 0,00000
 374,29;  960,450;  975,315;  969,669; 0,00000
 374,88; 1379,366; 1357,283; 1441,382;26,25781
 375,48; 1296,162; 1340,286; 1420,814;-54,79254
 376,07; 1433,337; 1326,254; 1586,014;41,22392
 376,66; 1036,634;  949,267; 1068,867;73,04948
 377,25;  650,933;  488,279;  729,003;67,56857
 377,84; 2181,694; 2123,279; 2292,773;34,46444
 378,44; 1830,895; 1778,290; 1935,193;33,52708
 379,03;  924,756;  871,266; 1005,407;39,87626
 379,62;  995,890; 1017,281; 1089,206;-29,74044
 380,21;  661,236;  682,289;  632,707; 0,00000
 380,80; 1131,299; 1126,287; 1133,761;67,05652
 381,39;  548,199;  529,287;  673,761;13,08989
 381,99; 1200,157; 1182,277; 1180,827; 0,00000
 382,58; 1772,836; 1809,266; 1862,150;-68,88636
 383,17; 2131,269; 2057,270; 2259,529;36,58614
 383,76; 2225,802; 2241,251; 2411,352;-9,08227
 384,35; 2004,201; 1937,263; 2145,488;32,14693
 384,94; 2562,209; 2619,259; 2617,623; 0,00000
 385,54; 2083,935; 2011,278; 2148,287;53,03077
 386,13;  944,005; 1009,295; 1124,032;-56,90392
 386,72; 1760,927; 1791,283; 1815,152;-127,17426
 387,31; 1257,533; 1159,279; 1319,003;61,51464
 387,90;  993,180; 1070,286;  951,788; 0,00000
 388,49;  998,556;  986,289;  977,964; 0,00000
 389,08; 2444,195; 2261,290; 2616,193;51,53654
 389,68; 1440,285; 1432,272; 1491,219;13,59401
 390,27; 1303,093; 1340,268; 1408,353;-54,59958
 390,86; 1325,967; 1293,271; 1276,245; 0,00000
 391,45; 1301,516; 1283,266; 1456,894;10,51060
 392,04; 2072,554; 1975,256; 2139,703;59,16645
 392,63;  612,212;  522,269;  745,326;40,32281
 393,22; 1009,067;  996,271; 1066,245;18,28634
 393,81;  934,813;  877,257; 1005,190;44,98934
 394,41;  929,138;  944,288;  967,990;-63,91976
 395,00;  931,482;  912,285; 1057,071;13,25882
 395,59;  432,947;  499,272;  478,989; 0,00000
 396,18; 1135,557; 1120,277; 1182,827;24,42898
 396,77; 1223,552; 1215,257; 1304,420; 9,30273
 397,36; 2816,690; 2812,247; 3003,229; 2,32632
 397,95; 1288,499; 1286,264; 1414,204; 1,74671
 398,54;  813,077;  742,266;  933,664;36,99677
 399,13; 1623,691; 1596,258; 1779,650;14,95849
 399,72;  498,635;  524,278;  524,287; 0,00000
 400,31;  939,636; 1072,300;  966,127; 0,00000
 400,90; 1320,002; 1271,251; 1444,352;28,16349
 401,50; 1390,229; 1429,282; 1409,436; 0,00000
 402,09; 1649,371; 1550,269; 1756,813;47,98107
 402,68; 1484,699; 1518,287; 1615,761;-34,45949
 403,27;  859,257;  870,277;  910,827;-27,17547
 403,86;  875,745;  968,273;  956,705; 0,00000
 404,45;  697,927;  647,260;  765,596;42,81686
 405,04; 1801,480; 1679,253; 1814,811;90,16575
 405,63; 1190,598; 1191,253; 1345,784;-0,42388
 406,22;  804,507;  771,283;  896,895;26,44933
 406,81; 1288,463; 1238,274; 1438,678;25,04412
 407,40; 1559,228; 1594,237; 1594,039; 0,00000
 407,99; 1791,668; 1804,282; 1835,666;-40,19456
 408,58; 1693,109; 1770,282; 1812,179;-184,19735
 409,17; 2054,860; 1960,264; 2093,974;70,74728
 409,76; 1958,244; 1959,285; 2082,842;-0,84274
 410,35;  887,458;  807,254;  915,271;74,25109
 410,94; 1283,967; 1318,271; 1328,245;-343,93327
 411,53; 1977,672; 1993,291; 2129,653;-11,45374
 412,12; 1026,475;  968,244; 1111,824;40,55677
 412,71;  848,250;  922,292;  981,112;-125,87908
 413,30;  808,001;  854,263;  944,488;-51,27432
 413,89;  634,933;  667,279;  749,003;-39,58024
 414,48;  701,103;  745,262;  724,772; 0,00000
 415,07; 1479,024; 1542,239; 1531,472; 0,00000
 415,66;  930,362;  913,252;  926,838;125,93283
 416,25; 1935,089; 1895,259; 2037,366;28,02790
 416,84; 2361,442; 2354,263; 2469,001; 6,25700
 417,43;  952,209;  985,259; 1071,623;-38,26808
 418,02; 1249,857; 1301,277; 1324,827;-218,33986
 418,61;  855,071;  831,269;  942,813;21,33859
 419,20;  844,160;  844,264;  865,974;-0,47595
 419,79;  805,197;  761,266;  805,921;98,38005
 420,38; 1194,687; 1217,271; 1164,502; 0,00000
 420,97; 2072,571; 2023,246; 2170,257;33,55221
 421,56; 1039,978; 1016,254; 1114,527;24,14113
 422,15;  860,480;  846,276;  867,368;67,34304
 422,74; 2167,368; 2179,282; 2268,666;-13,32973
 423,33; 1196,667; 1225,248; 1330,689;-27,10611
 423,92; 1627,130; 1710,270; 1676,299; 0,00000
 424,51; 1159,713; 1018,257; 1218,190;70,75174
 425,10; 1128,703;  995,262; 1102,772;124,12022
 425,69;  857,994;  916,256;  972,217;-104,10974
 426,28;  902,426;  819,238;  970,756;54,90314
 426,87; 1113,721; 1087,229; 1289,768;13,08002
 427,46; 2807,906; 2719,238; 2850,499;67,55052
 428,04;  650,646;  640,237;  649,012;118,61958
 428,63; 1237,751; 1126,246; 1378,000;44,29124
 429,22;  853,331;  778,257;  954,163;42,67849
 429,81; 1263,642; 1268,240; 1446,445;-2,57984
 430,40;  455,489;  408,236;  518,810;42,73449
 430,99; 1552,002; 1422,251; 1662,352;54,04036
 431,58; 2653,183; 2577,262; 2714,515;55,31426
 432,17; 2353,769; 2257,247; 2334,973;124,18293
 432,76; 1604,135; 1540,244; 1634,310;67,92064
 433,35; 1698,586; 1642,249; 1812,662;33,05889
 433,94; 2283,693; 2103,257; 2383,933;64,28603
 434,52;  392,554;  437,233;  466,147;-154,52317
 435,11; 1201,628; 1175,214; 1213,483;69,02294
 435,70;  870,673;  776,245;  953,540;53,26053
 436,29;  472,394;  457,256;  555,217;15,45389
 436,88; 1589,062; 1488,263; 1807,258;31,59908
 437,47; 1247,058; 1161,231; 1209,714;177,02290
 438,06; 1112,530; 1074,235; 1120,323;83,09041
 438,65; 4134,812; 4070,269; 4238,326;38,40526
 439,23;  898,623;  917,262;  961,028;-42,58614
 439,82; 1965,563; 1920,274; 1955,678;127,91973
 440,41; 1316,480; 1247,229; 1341,255;73,65123
 441,00; 1396,093; 1311,257; 1377,933;127,23493
 441,59; 1711,706; 1597,272; 1746,475;76,69655
 442,18; 1171,660; 1169,253; 1182,554;18,09430
 442,77;  810,486;  704,226;  867,106;65,23843
 443,35; 2189,234; 1990,233; 2283,890;67,76624
 443,94; 1800,168; 1688,259; 1836,109;75,69093
 444,53;  780,803;  649,262;  795,772;89,78325
 445,12; 1639,988; 1553,248; 1772,946;39,48138
 445,71; 1673,073; 1554,234; 1710,120;76,23420
 446,30; 2289,444; 2223,262; 2455,285;28,52390
 446,88;  876,023;  738,251;  782,608;310,59467
 447,47; 1605,435; 1461,255; 1644,730;78,58290
 448,06;  905,258;  781,231;  941,714;77,28340
 448,65; 1699,107; 1531,260; 1740,339;80,27927
 449,24; 2144,262; 1988,263; 2178,258;82,10702
 449,82; 1026,307;  795,260; 1078,339;81,61928
 450,41; 1211,973; 1185,268; 1203,097;149,78706
 451,00; 1307,094; 1155,256; 1423,217;56,66448
 451,59;  518,098;  426,242;  578,364;60,38263
 452,18; 1055,227;  940,249; 1128,176;61,18227
 452,76;  844,658;  738,254;  914,271;60,45087
 453,35; 1245,989; 1133,259; 1299,366;67,86569
 453,94; 1067,349;  974,247; 1135,716;57,65924
 454,53; 1193,071; 1041,246; 1251,256;72,29416
 455,12; 1613,287; 1522,260; 1628,082;86,01838
 455,70;  855,537;  707,254; 1001,014;50,47766
 456,29; 1036,009;  875,236; 1049,066;92,48873
 456,88; 2013,579; 1889,242; 2070,391;68,63813
 457,47; 2495,336; 2401,232; 2626,174;41,83459
 458,05; 1275,980; 1211,253; 1382,811;37,72904
 458,64; 1227,225; 1118,227; 1325,336;52,62850
 459,23;  798,202;  650,251;  793,352;103,38972
 459,82; 1936,538; 1747,242; 2083,878;56,23185
 460,40; 1315,589; 1235,259; 1448,366;37,69450
 460,99; 1183,613; 1078,223; 1184,214;99,43290
 461,58; 1519,959; 1349,242; 1597,134;68,86731
 462,17;  412,323;  253,251;  484,608;68,75587
 462,75;  820,588;  622,248;  923,946;65,74121
 463,34; 1242,973; 1102,245; 1417,540;44,63384
 463,93; 1332,493; 1155,257; 1538,933;46,19408
 464,52; 1460,364; 1361,227; 1545,565;53,77972
 465,10; 1216,238; 1041,265; 1277,434;74,08804
 465,69; 1886,976; 1525,221; 1986,267;78,46384
 466,28;  594,038;  387,231;  649,458;78,86560
 466,86; 1695,096; 1618,244; 1741,081;62,56433
 467,45;  509,989;  211,259;  589,366;79,00665
 468,04;  486,467;  291,248;  539,689;78,57770
 468,63; 1265,598; 1081,253; 1274,784;95,25352
 469,21; 1462,642; 1182,229; 1642,025;60,98632
 469,80; 1942,823; 1571,251; 2091,608;71,40703
 470,39; 1635,420; 1430,218; 1824,348;52,06461
 470,97;  977,160;  696,253; 1111,554;67,63923
 471,56;  729,842;  415,263;  823,001;77,15215
 472,15; 1389,266; 1107,226; 1483,849;74,88648
 472,73; 1157,586;  832,249; 1337,662;64,37045
 473,32; 1681,738; 1365,231; 1833,458;67,59690
 473,91;  619,067;  352,237;  652,269;88,93367
 474,49; 2014,446; 1718,238; 2109,012;75,80035
 475,08;  815,045;  610,227;  923,592;65,36096
 475,67; 1249,174;  876,233; 1302,404;87,50986
 476,25; 2062,786; 1723,226; 2179,106;74,48460
 476,84;  896,615;  542,232; 1020,917;74,03261
 477,43; 1456,984; 1167,250; 1541,379;77,44232
 478,01; 1670,469; 1415,247; 1829,973;61,54002
 478,60;  641,817;  346,231;  723,201;78,41109
 479,19; 1352,972; 1010,223; 1430,700;81,51427
 479,77; 1037,918;  727,242; 1165,621;70,86926
 480,36;  982,869;  630,236; 1100,553;74,97766
 480,94;  982,980;  604,229; 1105,255;75,59514
 481,53; 1497,255; 1159,244; 1459,567;112,54907
 482,12; 1539,193; 1177,211; 1702,821;68,86909
 482,70; 1221,401;  864,229; 1382,512;68,91447
 483,29;  978,890;  675,224; 1132,673;66,38251
 483,88;  971,337;  622,220; 1035,038;84,56925
 484,46;  997,876;  616,232; 1063,688;85,29217
 485,05; 1157,879;  793,242; 1326,391;68,39312
 485,63; 1958,739; 1592,253; 2126,298;68,62460
 486,22; 1298,591;  898,212; 1473,537;69,59188
 486,81;  729,271;  463,246;  927,256;57,33176
 487,39;  988,493;  518,200; 1179,401;71,12709
 487,98; 1007,709;  611,225; 1141,646;74,74883
 488,56; 1525,032; 1156,245; 1654,027;74,08616
 489,15; 1739,882; 1393,251; 1841,095;77,39994
 489,74; 2201,909; 1708,225; 2364,646;75,20838
 490,32; 1222,769;  851,247; 1243,973;94,60097
 490,91; 1040,123;  528,228; 1132,052;84,77556
 491,49; 1093,677;  616,232; 1351,688;64,91822
 492,08; 1240,032;  857,245; 1379,027;73,36159
 492,66; 2473,422; 2032,240; 2725,188;63,66736
 493,25; 1096,390;  564,224; 1248,673;77,75101
 493,84; 1764,580; 1310,229; 1853,255;83,67027
 494,42; 1429,757;  864,220; 1678,294;69,46997
 495,01; 1731,047; 1247,248; 1764,432;93,54478
 495,59; 1451,755;  912,221; 1606,011;77,76625
 496,18;  987,589;  508,236; 1069,810;85,35890
 496,76; 1492,839; 1051,253; 1655,298;73,10489
 497,35;  814,725;  268,227;  922,336;83,54853
 497,93; 1758,524; 1142,239; 1946,472;76,63015
 498,52; 1092,386;  602,249; 1223,662;78,87454
 499,10; 1745,214; 1198,221; 1921,497;75,62716
 499,69; 2844,014; 2214,244; 2860,054;97,51636
 500,27; 2682,439; 2094,219; 2903,321;72,70029
 500,86; 2483,414; 1877,210; 2656,077;77,83147
 501,44; 2955,550; 2355,235; 3162,580;74,35673
 502,03; 1172,724;  607,205; 1324,496;78,84092
 502,61; 1468,242;  839,229; 1625,025;80,04782
 503,20;  766,447;  155,214;  912,456;80,71825
 503,78; 1886,234; 1317,210; 2101,334;72,56813
 504,37; 1092,020;  512,207; 1231,928;80,56073
 504,95; 3018,204; 2418,239; 3251,215;72,02661
 505,54;  872,114;  256,210; 1054,077;77,19374
 506,12; 1989,416; 1252,209; 2162,361;80,99820
 506,71; 1327,702;  623,194; 1487,819;81,48139
 507,29; 1325,027;  696,226; 1409,619;88,14227
 507,88; 1209,556;  511,198; 1231,454;96,95960
 508,46;  753,405;  110,227;  953,079;76,30969
 509,05; 1224,076;  460,221; 1351,267;85,72558
 509,63; 3154,405; 2504,227; 3338,079;77,97282
 510,22; 1212,163;  552,240; 1364,702;81,22509
 510,80; 3129,499; 2334,230; 3282,228;83,88928
 511,39; 2666,208; 1877,214; 2717,226;93,92645
 511,97; 1718,152; 1054,234; 1802,863;88,68448
 512,55; 3517,311; 2784,224; 3633,930;86,27533
 513,14; 1297,605;  532,204; 1539,523;75,98402
 513,72; 2204,363; 1307,216; 2304,146;89,99102
 514,31; 2341,974; 1601,222; 2479,984;84,29492
 514,89; 2681,013; 1917,234; 2819,634;84,63873
 515,48; 1801,903;  974,205; 1921,239;87,39899
 516,06; 2314,377; 1444,186; 2535,575;79,73248
 516,65; 1657,556;  798,232; 1769,431;88,48076
 517,23;  914,907;   59,226;  957,363;95,27289
 517,81; 1554,620;  769,218; 1763,348;79,00397
 518,40; 2159,924; 1217,205; 2288,496;87,99840
 518,98; 2194,708; 1368,237; 2437,783;77,27305
 519,57; 1573,085;  689,215; 1626,686;94,28245
 520,15; 1201,197;  272,197; 1378,968;83,93783
 520,73; 1857,036; 1019,232; 2068,174;79,87130
 521,32; 2204,558; 1249,231; 2412,714;82,10922
 521,90; 1521,111;  664,235; 1761,350;78,10270
 522,49; 3979,662; 2943,206; 4202,726;82,28982
 523,07; 1500,577;  466,209; 1697,131;84,03196
 523,65; 3254,026; 2258,215; 3570,199;75,90118
 524,24; 2231,365; 1217,238; 2500,985;78,99737
 524,82; 2258,975; 1130,233; 2423,404;87,28481
 525,40; 2312,514; 1270,210; 2537,077;82,27410
 525,99; 1106,144;   57,205; 1330,752;82,36357
 526,57; 1915,208;  821,214; 2084,226;86,61783
 527,16; 2473,090; 1489,190; 2708,697;80,68015
 527,74; 1216,854;   57,210; 1463,591;82,45595
 528,32; 2492,607; 1449,226; 2703,363;83,19514
 528,91; 1409,596;  285,197; 1689,968;80,04148
 529,49; 1927,740;  767,230; 2218,741;79,95181
 530,07; 1960,360;  765,207; 2085,442;90,52583
 530,66; 1306,863;   37,182; 1450,169;89,85792
 531,24; 1745,737;  495,220; 1926,038;87,39875
 531,82; 1633,602;  471,240; 1787,932;88,27895
 532,41; 2104,967;  844,214; 2296,713;86,79890
 532,99; 1888,237;  649,220; 2160,038;82,00969
 533,57; 2073,424;  815,239; 2351,472;81,90066
 534,16; 2145,635;  896,221; 2440,754;80,89266
 534,74; 1798,557;  424,220; 2053,294;84,36307
 535,32; 2976,971; 1596,212; 3131,280;89,94774
 535,90; 2536,249; 1179,213; 2802,740;83,58566
 536,49; 1895,512;  478,212; 2073,794;88,82652
 537,07; 1502,424;   94,239; 1792,472;82,92060
 537,65; 3425,993; 1980,234; 3868,377;76,57042
 538,24; 1672,883;  184,205; 1996,982;82,12138
 538,82; 1994,382;  556,217; 2348,118;80,25913
 539,40; 3079,085; 1499,181; 3505,709;78,73819
 539,99; 2778,231; 1219,223; 3082,187;83,68428
 540,57; 1934,649;  360,224; 2230,160;84,19677
 541,15; 3081,114; 1496,244; 3249,054;90,41883
 541,73; 2720,540; 1080,241; 3012,161;84,90512
 542,32; 1900,920;  266,207; 2194,928;84,75629
 542,90; 2591,380;  940,218; 2943,835;82,40905
 543,48; 3304,539; 1412,196; 3604,765;86,30713
 544,06; 2497,963;  700,240; 2811,702;85,14114
 544,65; 3219,894; 1574,188; 3476,264;86,52155
 545,23; 2004,798;  121,185; 2374,832;83,58066
 545,81; 4817,839; 2978,219; 5217,321;82,15881
 546,39; 2062,212;   32,188; 2368,237;86,89988
 546,98; 3101,454;  912,199; 3338,171;90,24238
 547,56; 2950,312;  705,212; 3404,794;83,16473
 548,14; 3667,439; 1559,219; 4090,321;83,29255
 548,72; 3702,708; 1499,214; 4022,226;87,33583
 549,31; 2814,608;  550,214; 3186,226;85,90225
 549,89; 3064,678;  690,197; 3472,995;85,32711
 550,47; 3170,816;  787,209; 3645,361;83,39678
 551,05; 2973,220;  570,218; 3448,348;83,49179
 551,63; 4232,420; 1782,218; 4735,348;82,96967
 552,22; 3383,259;  807,219; 3836,578;85,03582
 552,80; 3223,936;  671,232; 3494,174;90,42707
 553,38; 3463,155;  820,187; 3842,034;87,46199
 553,96; 3255,285;  659,215; 3611,686;87,92874
 554,54; 4129,778; 1459,231; 4739,971;81,40076
 555,13; 3450,356;  742,209; 3857,875;86,92035
 555,71; 2750,907;  -79,797; 3272,806;84,43302
 556,29; 4660,731; 1856,200; 5157,630;84,94898
 556,87; 3493,020;  686,207; 4054,928;83,31982
 557,45; 3341,122;  358,240; 3720,188;88,72480
 558,03; 3259,110;  277,190; 3690,954;87,34993
 558,62; 4025,958; 1018,208; 4566,158;84,77432
 559,20; 3461,027;  402,192; 4001,643;84,98059
 559,78; 4572,454; 1505,199; 5035,171;86,89176
 560,36; 3710,833;  651,222; 4298,470;83,88820
 560,94; 3971,040;  795,207; 4566,185;84,21776
 561,52; 4978,611; 1763,201; 5317,374;90,46859
 562,11; 4042,352;  655,200; 4736,887;82,98411
 562,69; 4397,955; 1013,210; 5016,591;84,54716
 563,27; 3482,499;   84,207; 3974,672;87,34926
 563,85; 4669,468; 1212,202; 5279,577;84,99995
 564,43; 3414,851;  -79,788; 3914,023;87,50134
 565,01; 4066,144;  536,205; 4689,752;84,98612
 565,59; 3746,100;  157,184; 4305,115;86,52303
 566,18; 3954,927;  382,203; 4563,063;85,45430
 566,76; 4243,575;  552,233; 4924,404;84,42812
 567,34; 4727,960; 1008,207; 5429,442;84,13381
 567,92; 4785,961; 1082,184; 5428,885;85,20892
 568,50; 4603,086;  895,203; 5400,549;82,29963
 569,08; 5200,987; 1355,203; 5960,549;83,50694
 569,66; 4550,486;  728,192; 5279,129;83,98915
 570,24; 4576,389;  546,236; 5409,810;82,86403
 570,82; 5404,088; 1541,202; 6105,833;84,62648
 571,40; 4338,167;  264,214; 5088,713;84,44303
 571,99; 4329,843;  412,217; 5283,889;80,41646
 572,57; 4579,320;  432,184; 5410,372;83,30613
 573,15; 5883,693; 1761,211; 6769,820;82,30793
 573,73; 4109,485;   -2,796; 5018,266;81,90062
 574,31; 4615,195;  514,233; 5371,661;84,42662
 574,89; 4972,784;  656,193; 5907,846;82,19490
 575,47; 4396,729;    2,201; 5245,347;83,81473
 576,05; 5438,864;  971,227; 6356,565;82,95926
 576,63; 5269,910;  659,190; 6209,954;83,06461
 577,21; 4837,790;  317,224; 5697,673;84,01837
 577,79; 5215,844;  636,205; 6059,752;84,43991
 578,37; 4561,677;  -66,791; 5606,131;81,58877
 578,95; 5156,293;  394,211; 5910,820;86,32263
 579,53; 5311,578;  376,197; 6079,995;86,52799
 580,11; 4880,993;  -62,800; 5839,400;83,76186
 580,69; 6171,246; 1108,203; 6969,036;86,38777
 581,27; 7522,647; 2331,191; 8476,899;84,47286
 581,85; 5899,973;  691,211; 6871,564;84,27936
 582,43; 6612,421; 1266,206; 7510,212;85,62156
 583,01; 5926,749;  641,213; 6890,740;84,57497
 583,59; 5750,881;  254,217; 6521,119;87,70944
 584,17; 6450,063;  904,216; 7375,146;85,70402
 584,75; 6158,327;  630,192; 7118,643;85,19961
 585,33; 6445,044;  905,205; 7203,752;87,95423
 585,91; 6674,578; 1225,197; 7565,995;85,94157
 586,49; 6305,676;  553,221; 7225,268;86,21725
 587,07; 6184,525;  566,227; 7289,335;83,56697
 587,65; 6608,757; 1037,220; 7848,294;81,80115
 588,23; 6390,031;  787,189; 7429,210;84,35447
 588,81; 6710,664; 1029,204; 7819,009;83,67633
 589,39; 6412,782;  583,194; 7433,562;85,09890
 589,97; 7581,055; 1779,210; 8975,591;80,62170
 590,55; 6063,063;  307,205; 7337,726;81,86958
 591,13; 6398,869;  706,236; 7613,553;82,41453
 591,71; 6910,939; 1103,196; 8231,765;81,47138
 592,29; 6472,970;  572,201; 7854,860;81,02493
 592,87; 7048,573; 1292,211; 8597,563;78,79650
 593,45; 6038,393;  258,200; 7499,400;79,82368
 594,03; 7404,864; 1703,204; 8961,009;78,55902
 594,61; 5944,152;  206,234; 7382,863;79,95283
 595,19; 6355,260;  622,207; 8045,442;77,23120
 595,77; 6102,818;  266,208; 7842,645;77,03635
 596,35; 6516,258;  597,197; 8291,738;76,92545
 596,93; 5964,376;  166,232; 7465,688;79,43256
 597,51; 6420,784;  539,227; 8026,822;78,55068
 598,09; 6599,915;  679,221; 8208,497;78,63563
 598,66; 7340,483; 1277,205; 9010,982;78,39995
 599,24; 6234,330;  239,201; 8051,347;76,74113
 599,82; 7300,491; 1287,201; 8959,117;78,38055
 600,40; 6567,875;  420,221; 8404,268;76,99923
 600,98; 7831,708; 1674,225; 9616,646;77,52653
 601,56; 6611,210;  303,213; 8370,510;78,19220
 602,14; 6845,049;  474,190; 8600,184;78,40098
 602,72; 7108,515;  608,198; 8736,940;79,96707
 603,30; 7052,226;  714,215; 8780,199;78,57703
 603,87; 7332,104;  849,170; 9039,546;79,15308
 604,45; 7582,489;  880,213; 9246,253;80,11289
 605,03; 7070,115;  251,198; 8654,940;81,14143
 605,61; 7677,245;  886,216; 9178,172;81,89900
 606,19; 7130,624;  217,205; 8519,496;83,27121
 606,77; 8302,913; 1275,199; 9863,657;81,82742
 607,35; 6998,070; -145,799; 8487,860;82,74440
 607,93; 7242,417;  208,197; 8830,225;81,58429
 608,50; 8085,597; 1033,208; 9681,388;81,54767
 609,08; 7438,857;  479,197; 9254,738;79,30748
 609,66; 8748,019; 1832,196;10546,508;79,36166
 610,24; 8122,036; 1341,232;10070,174;77,68185
 610,82; 6969,479;  170,218; 9086,835;76,25382
 611,40; 8170,121; 1575,218;10409,349;74,65254
 611,97; 6661,832;  232,200; 8825,630;74,82032
 612,55; 6269,956; -115,802; 8626,454;73,04473
 613,13; 7443,410; 1137,190; 9967,953;71,41195
 613,71; 7733,670; 1377,201;10523,860;69,49498
 614,29; 7017,701;  932,206; 9948,955;67,49101
 614,87; 6570,023;  678,194; 9475,075;66,97634
 615,44; 6961,566; 1186,203;10147,293;64,44934
 616,02; 5964,689;  245,213; 9434,253;62,24237
 616,60; 5899,357;  239,197; 9260,738;62,74050
 617,18; 6802,514; 1084,187;10457,521;61,00633
 617,76; 6755,342; 1233,206;10542,469;59,31872
 618,33; 5755,237;  211,197; 9411,481;60,25944
 618,91; 6593,957; 1185,186;10553,318;57,73585
 619,49; 7279,813; 1732,199;11607,657;56,17576
 620,07; 6513,927; 1196,203;10693,063;55,99456
 620,64; 6061,567;  789,191;10337,156;55,21989
 621,22; 5033,429; -137,799; 9135,347;55,76563
 621,80; 5686,517;  329,197; 9918,225;55,86927
 622,38; 7217,731; 1932,200;11579,630;54,78694
 622,95; 6136,986;  956,192;10646,130;53,46571
 623,53; 5036,367;   -6,786; 9681,713;52,05299
 624,11; 5624,254;  551,210;10197,591;52,59013
 624,69; 5301,237;  233,197; 9799,481;52,97815
 625,26; 5333,009;  126,225; 9828,646;53,66479
 625,84; 5346,287;  262,203; 9831,550;53,12885
 626,42; 5606,496;  617,220;10262,524;51,72751
 627,00; 5964,542; 1008,240;10723,445;51,01593
 627,57; 6367,687; 1155,237;11066,525;52,59104
 628,15; 5120,833;  -96,801; 9911,914;52,13091
 628,73; 6580,081; 1325,206;11492,698;51,68309
 629,31; 5823,466;  673,226;10785,850;50,92882
 629,88; 6205,580;  842,195;11170,278;51,93011
 630,46; 5174,158; -223,792;10236,158;51,60589
 631,04; 5895,063;  512,216;10841,146;52,11428
 631,61; 5873,617;  589,197;10938,225;51,06199
 632,19; 5270,645; -158,808;10395,616;51,44243
 632,77; 5860,547;  451,225;10875,876;51,88972
 633,34; 5420,018;  108,208;10721,645;50,04797
 633,92; 6256,648;  822,213;11583,739;50,49874
 634,50; 5620,815;  121,232;10976,917;50,66086
 635,08; 7168,895; 1781,233;12500,660;50,26073
 635,65; 6322,152;  790,200;11532,887;51,49505
 636,23; 5952,240;  428,207;11148,185;51,53027
 636,81; 6945,620; 1479,207;12251,929;50,74310
 637,38; 5209,781; -246,794;10548,698;50,54494
 637,96; 5323,307; -144,774;10888,362;49,56053
 638,54; 6707,555; 1145,221;12271,011;49,99496
 639,11; 5802,243;  224,194;11502,332;49,45896
 639,69; 7339,559; 1730,185;12938,602;50,04609
 640,26; 5733,139;  209,212;11269,127;49,94548
 640,84; 6556,647;  874,212;12342,369;49,54968
 641,42; 5874,956;  217,212;11386,611;50,65397
 641,99; 5839,664;   82,211;11582,854;50,06201
 642,57; 6196,872;  481,211;11914,097;49,99316
 643,15; 7292,480; 1585,211;12723,339;51,24083
 643,72; 5640,988; -182,789;11388,581;50,32919
 644,30; 5949,696;   91,211;11770,823;50,15993
 644,87; 6677,604;  777,210;12639,066;49,74258
 645,45; 5572,212; -212,790;11464,309;49,54144
 646,03; 7097,720; 1097,210;13081,551;50,06959
 646,60; 7591,428; 1491,210;13501,793;50,79036
 647,18; 6167,236;  198,210;11787,036;51,50674
 647,75; 6386,845;  217,209;12517,278;50,15936
 648,33; 6115,053;    8,209;12128,521;50,38520
 648,91; 5747,261; -250,791;11704,763;50,16959
 649,48; 6188,569;   38,209;12421,005;49,66859
 650,06; 6662,577;  363,209;12990,248;49,88793
 650,63; 6416,185;   -4,792;12749,490;50,34369
 651,21; 7051,193;  858,208;13336,732;49,62915
 651,79; 7436,701; 1101,208;14128,975;48,63069
 652,36; 7133,909;  789,208;13837,218;48,62582
 652,94; 6719,117;  264,207;13216,460;49,83619
 653,51; 6587,425;  178,207;13237,702;49,07707
 654,09; 7382,434;  755,207;13939,944;50,26438
 654,66; 7067,742;  591,207;13750,187;49,21761
 655,24; 6908,250;  399,207;13490,430;49,72067
 655,81; 7698,558; 1080,206;14569,672;49,06311
 656,39; 7118,566;  339,206;14336,914;48,43193
 656,96; 7000,274;   50,206;13642,156;51,13371
 657,54; 8395,582; 1296,206;15239,399;50,91643
 658,11; 7590,890;  518,206;14317,642;51,25343
 658,69; 7384,499;  618,205;14216,884;49,75699
 659,27; 7797,906;  806,205;14521,126;50,97879
 659,84; 8213,915; 1189,205;15261,369;49,91919
 660,42; 7137,223;   56,205;13802,611;51,51177
 660,99; 6986,531; -252,796;13913,854;51,10119
 661,57; 8004,139;  667,204;14943,096;51,39388
 662,14; 8156,847;  943,204;15157,338;50,74979
 662,72; 6872,655; -356,796;13765,581;51,19146
 663,29; 7247,263;   22,204;14388,823;50,29060
 663,87; 7087,171; -263,797;14140,065;51,03470
 664,44; 8657,079; 1122,203;15675,308;51,77504
 665,01; 8093,288;  394,203;15016,551;52,65286
 665,59; 8042,096;  150,203;15270,793;52,19302
 666,16; 7915,704;  -80,797;15058,035;52,82112
 666,74; 8179,312;  178,202;15348,277;52,74271
 667,31; 8246,220;   87,202;15679,521;52,32716
 667,89; 8688,628;  369,202;16162,763;52,67606
 668,46; 9751,936; 1387,202;17226,004;52,81166
 669,04; 9617,844; 1180,202;17005,248;53,31828
 669,61; 8911,052;  301,201;16584,490;52,87538
 670,19; 8830,261;  112,201;16808,732;52,21480
 670,76; 8868,568;  -86,799;16919,975;52,65765
 671,33; 8830,877;  -39,799;16870,217;52,45812
 671,91;10446,585; 1450,200;18531,459;52,66816
 672,48; 9372,893;  339,200;17357,701;53,08160
 673,06;10187,001;  850,200;18025,943;54,36039
 673,63; 9569,709;  225,200;17593,188;53,80306
 674,21; 9170,917; -385,800;17190,430;54,37296
 674,78;10183,325;  731,199;18255,672;53,93672
 675,35;10110,233;  524,199;17752,914;55,63987
 675,93;11067,841; 1321,199;18961,156;55,25321
 676,50;10151,449;  263,199;17748,398;56,55212
 677,08;10004,558;  -18,801;17589,641;56,92360
 677,65; 9857,966;  -95,802;17009,883;58,18982
 678,22;10404,474;  346,198;17765,125;57,74337
 678,80;10053,182; -342,802;17353,369;58,74708
 679,37;10796,590;  -99,802;18448,611;58,74568
 679,94;11136,098;   25,198;18851,854;59,01685
 680,52;12063,306;  654,197;19704,096;59,89065
 681,09;12493,414;  653,197;19873,338;61,60318
 681,67;13211,622; 1035,197;21087,580;60,72308
 682,24;13078,431;  748,197;20765,822;61,59689
 682,81;12395,938;  -68,804;20107,064;61,78045
 683,39;12724,547;   -6,804;20163,307;63,11989
 683,96;13381,654;  217,196;21056,551;63,17114
 684,53;14374,563;  926,196;22023,793;63,74359
 685,11;14446,971;  634,196;21983,035;64,70036
 685,68;14599,979;  302,195;21897,277;66,20852
 686,25;14568,987;    7,195;21761,520;66,93746
 686,83;15328,896;  525,195;22202,762;68,29042
 687,40;15616,803;  597,195;22262,004;69,32721
 687,97;15741,611;  561,195;21958,246;70,94630
 688,55;15655,819;    7,194;21613,488;72,42623
 689,12;16141,228;  324,194;21671,732;74,09301
 689,69;17241,836; 1173,194;22751,975;74,46501
 690,27;16597,443;   45,194;21972,217;75,48790
 690,84;16829,152; -358,806;22096,459;76,54311
 691,41;18477,359;  896,193;23377,701;78,20279
 691,98;18787,568;  968,193;23514,943;79,03301
 692,56;18735,377;  639,193;23211,186;80,17096
 693,13;18246,084; -292,807;22759,428;80,42123
 693,70;19389,191;  609,192;23657,672;81,48042
 694,28;19391,301;  330,192;23392,914;82,64900
 694,85;19424,508;  -69,808;23219,156;83,70624
 695,42;20006,916;   98,192;23901,398;83,63883
 695,99;20800,725;  730,192;24511,641;84,39575
 696,57;20193,033;    9,191;23744,883;85,03583
 697,14;20715,041;  397,191;24439,125;84,51005
 697,71;20850,648;  111,191;24342,367;85,58997
 698,28;21650,557;  615,191;25335,609;85,09308
 698,86;23069,465; 2017,191;26692,854;85,31594
 699,43;21787,174;  707,190;25533,096;84,91124
 700,00;21337,682;  347,190;25060,338;84,93654
 700,57;20480,090; -393,810;24120,580;85,14958
 701,15;21521,797;  626,190;25130,822;85,27207
 701,72;20995,305; -142,811;24292,064;86,50797
 702,29;22326,914;  748,189;26148,307;84,95522
 702,86;21456,121; -417,811;25519,549;84,33369
 703,43;22826,430;  857,189;26757,791;84,82135
 704,01;21792,838;  -50,811;25467,035;85,60146
 704,58;21390,445; -442,812;25364,277;84,60178
 705,15;22535,154;  762,188;26588,520;84,30530
 705,72;21459,063; -392,812;25897,762;83,11677
 706,29;21749,170;  193,188;26277,004;82,64121
 706,87;21943,279;  317,188;26476,246;82,67152
 707,44;22160,387;  353,187;26750,488;82,61147
 708,01;22410,295;  235,187;27246,730;82,09493
 708,58;22139,002; -287,813;26833,973;82,68930
 709,15;22125,311; -436,813;27175,217;81,71121
 709,72;23773,119; 1259,187;28503,459;82,63731
 710,30;23432,928;  525,186;28394,701;82,19641
 710,87;22498,535; -449,814;27102,943;83,28876
 711,44;22846,043;  -83,814;27466,186;83,22997
 712,01;22702,752;  -87,814;27783,428;81,77090
 712,58;22481,559; -339,815;27789,670;81,12972
 713,15;23223,268;  355,185;28702,912;80,66990
 713,73;23507,477;  265,185;28709,156;81,71254
 714,30;23935,883;  522,185;29229,398;81,56033
 714,87;24146,691;  446,185;29473,641;81,64858
 715,44;24026,600;  -91,816;29158,883;82,45415
 716,01;25001,008;  704,184;29834,125;83,40842
 716,58;24723,615;  421,184;29717,367;82,95426
 717,15;26545,023; 2039,184;31491,609;83,20483
 717,72;24599,432; -116,816;29517,852;83,40315
 718,30;24860,541; -445,817;29934,094;83,29965
 718,87;25440,248;  240,183;30248,338;83,97739
 719,44;25546,057;  187,183;30515,580;83,61429
 720,01;25431,465;  246,183;30144,822;84,23555
 720,58;26270,473; 1142,182;30566,064;85,40100
 721,15;24955,080; -338,818;29900,307;83,64626
 721,72;25478,289;  254,182;30281,549;84,00373
 722,29;25993,197;  596,182;30413,791;85,17455
 722,86;26152,105;  265,182;30622,033;85,27539
 723,43;27082,213;  933,181;31447,275;85,69493
 724,00;26691,721;  639,181;31440,520;84,58249
 724,57;26772,229;  685,181;31130,762;85,68418
 725,14;26250,637;  174,181;30525,004;85,91680
 725,72;26919,445;  223,181;31211,246;86,15015
 726,29;27609,754;  461,180;32152,488;85,66568
 726,86;28580,961; 1246,180;32934,730;86,26075
 727,43;28826,471;  785,180;33613,973;85,41676
 728,00;28705,777;  209,180;33519,215;85,54959
 728,57;30056,387;  814,180;34928,457;85,71838
 729,14;29350,193; -104,821;33905,699;86,60560
 729,71;29943,902;  615,179;34412,941;86,77712
 730,28;30393,510;  939,179;35102,184;86,21704
 730,85;30674,219;  767,179;34825,426;87,81145
 731,42;30245,727; -112,822;34341,672;88,11201
 731,99;30532,334;   28,178;34594,914;88,24714
 732,56;31783,844; 1352,178;35864,156;88,17711
 733,13;30520,951;  358,178;34711,398;87,80188
 733,70;30726,959;  610,178;34982,641;87,61892
 734,27;30120,768;  152,177;34490,883;87,27350
 734,84;29016,076; -409,823;33668,125;86,34880
 735,41;29868,584;  812,177;34050,367;87,41874
 735,98;29686,691;  307,177;34020,609;87,14483
 736,55;28862,500; -488,823;33605,852;86,08771
 737,12;29467,107; -187,824;33824,094;87,18982
 737,69;29998,615;  191,176;33995,336;88,17684
 738,26;30220,324; -115,824;34026,578;88,85183
 738,83;30970,932;  236,176;35097,820;88,16209
 739,40;31240,340;  208,176;35526,063;87,86529
 739,97;31384,049;  214,175;35583,305;88,12734
 740,53;31910,057;  604,175;36059,547;88,29658
 741,10;31587,064;  784,175;35864,793;87,80601
 741,67;31107,572;  322,175;35477,035;87,57081
 742,24;31284,580;  338,174;36101,277;86,53166
 742,81;30485,389; -446,826;35431,520;86,21416
 743,38;32244,496; 1540,174;37355,762;85,72894
 743,95;31161,105;  300,174;36291,004;85,74665
 744,52;32213,113;  963,174;37331,246;85,92685
 745,09;31245,320; -184,827;36585,488;85,47696
 745,66;31913,729;  853,173;37192,730;85,47313
 746,23;31662,537;  662,173;37320,973;84,56459
 746,80;32169,846; 1280,173;37306,215;85,74262
 747,36;31913,854;  664,173;37368,457;85,13906
 747,93;31252,961;   74,172;36547,699;85,48334
 748,50;31038,070; -124,828;36481,941;85,12879
 749,07;31212,377;  233,172;36244,184;86,02703
 749,64;30993,885;  -63,828;36036,426;86,03184
 750,21;32827,895; 1148,172;37699,668;86,67148
 750,78;31992,201; -128,829;37333,910;85,74127
 751,35;32876,809;  632,171;38715,156;84,66941
 751,92;32220,918;  -64,829;37872,398;85,10307
 752,48;31844,525; -425,829;37342,641;85,44258
 753,05;32378,734;  116,170;37409,883;86,50939
 753,62;33438,941;  876,170;38777,125;85,91544
 754,19;33126,551; 1012,170;38364,367;85,97722
 754,76;33275,559; 1078,170;38416,609;86,23121
 755,33;31667,566; -402,830;36993,852;85,75733
 755,89;33508,977; 1118,169;38714,094;86,15510
 756,46;32484,383;  238,169;38079,336;85,21464
 757,03;32051,990;  346,169;37749,578;84,76720
 757,60;30825,699; -244,831;36715,820;84,06381
 758,17;31310,508;  401,169;36854,063;84,79255
 758,74;32093,314;  993,168;37374,305;85,48426
 759,30;31474,023; -440,832;36653,547;86,03690
 759,87;32568,031;  345,168;37582,789;86,53309
 760,44;33713,340; 1056,168;39076,031;85,89503
 761,01;32718,148;  227,167;38137,277;85,70532
 761,58;33136,656;  785,167;38617,520;85,51276
 762,14;32708,064;  318,167;37994,762;85,96822
 762,71;32695,371;   43,167;38130,004;85,73094
 763,28;33347,980;  774,167;38274,246;86,86332
 763,85;32263,088; -387,834;36861,488;87,65508
 764,41;32624,996;  255,166;37715,730;86,41042
 764,98;32964,105;  261,166;38079,973;86,47269
 765,55;32372,713; -479,834;37246,215;87,08186
 766,12;33221,621;  587,166;38452,457;86,18567
 766,69;33050,230;  294,165;38033,699;86,79510
 767,25;33755,836; 1070,165;38730,941;86,78969
 767,82;33387,043;  369,165;38485,184;86,62468
 768,39;33431,453;  -37,835;38552,426;86,72988
 768,95;33153,262; -135,835;38351,668;86,49326
 769,52;33119,668;  255,164;38356,910;86,25459
 770,09;33037,379; 1049,164;38295,152;85,88365
 770,66;34885,184; 2247,164;39772,395;86,97620
 771,22;33789,992; 1107,164;38690,641;86,96063
 771,79;34033,203; 1220,163;38201,883;88,72773
 772,36;33128,809;  840,163;37451,125;88,19393
 772,93;32201,318;  -22,837;36830,367;87,43922
 773,49;33106,824;  892,163;37622,609;87,70561
 774,06;32590,734;  200,163;37061,852;87,87056
 774,63;32448,441;  210,162;37182,094;87,19663
 775,19;32049,350;  104,162;36112,336;88,71649
 775,76;32196,658;  179,162;35692,578;90,15606
 776,33;32055,166; -161,838;36070,820;88,91703
 776,89;33342,176;  632,162;37260,063;89,30355
 777,46;32990,281;  167,161;37432,305;88,07995
 778,03;33134,789;  480,161;37473,547;88,27153
 778,59;31567,398; -535,839;36565,789;86,52784
 779,16;32277,307;  -96,839;37203,031;86,79426
 779,73;32913,715;  426,161;37610,273;87,36945
 780,29;33494,621;  438,160;38322,516;87,25623
 780,86;33332,031;  104,160;38292,762;87,00992
 781,43;33614,039; 1006,160;38431,004;87,12896
 781,99;32461,848; -105,840;36994,246;87,78332
 782,56;32814,355;  355,159;37497,488;87,39139
 783,13;33042,762;  443,159;37007,730;89,15626
 783,69;32726,572; -107,841;37078,973;88,29585
 784,26;32466,279; -178,841;36990,215;87,82876
 784,82;32552,088;  283,159;37314,457;87,13961
 785,39;31585,596; -469,842;36583,699;86,51113
 785,96;31963,703;  212,158;37232,941;85,76681
 786,52;32126,611;  296,158;37319,184;85,97475
 787,09;31768,820;   91,158;36702,426;86,52435
 787,65;31130,629; -307,842;35796,668;87,07630
 788,22;31720,836;  539,157;36523,910;86,65247
 788,79;31771,445;  596,157;36630,152;86,51632
 789,35;31187,953;  -27,843;36261,395;86,01943
 789,92;30921,160; -139,843;35605,637;86,89491
 790,48;30735,969;  174,157;35624,879;86,20928
 791,05;30853,977;  464,156;35466,125;86,82317
 791,62;31264,584;  940,156;35725,367;87,17621
 792,18;30952,693;  334,156;35835,609;86,24587
 792,75;30631,801;  -53,844;35575,852;86,12379
 793,31;30645,510; -168,845;35647,094;86,03531
 793,88;31813,918; 1212,155;36948,336;85,63244
 794,44;30231,826;   96,155;34735,578;86,99819
 795,01;30505,334;  563,155;34948,820;87,07750
 795,57;30403,141;  133,155;34409,063;88,31272
 796,14;31501,949;  718,154;35481,305;88,55295
 796,70;30608,559; -465,846;34389,547;89,15236
 797,27;31451,566;  864,154;35695,789;87,81503
 797,83;30638,674;  -45,846;34974,031;87,62030
 798,40;31414,082;  209,154;35872,273;87,49915
 798,97;31816,189;   95,153;36490,516;87,15681
 799,53;31547,498; -238,847;36552,758;86,39565
 800,10;30836,406; -475,847;36098,000;85,61378
 800,66;30854,514;  243,153;35847,246;85,97708
 801,23;30635,922;  279,152;35640,488;85,84735
 801,79;33121,031; 2528,152;37939,730;86,39231
 802,35;31244,238;  371,152;35644,973;87,52408
 802,92;31013,848;  258,152;35778,215;86,58683
 803,48;30519,754;  244,152;35068,457;86,93814
 804,05;30339,363;  572,151;34905,699;86,70008
 804,61;31347,271; 1040,151;36058,941;86,54531
 805,18;30923,779;  282,151;35584,184;86,79848
 805,74;31919,088;  831,151;36698,426;86,67493
 806,31;31395,596;  230,151;36073,668;86,94862
 806,87;33433,203; 2274,150;37728,910;87,88398
 807,44;30628,412; -279,850;35077,152;87,41765
 808,00;31546,420;  977,150;36642,395;85,71165
 808,57;30842,328;  522,150;36197,637;84,98883
 809,13;33405,637; 3597,149;38806,879;84,65980
 809,69;29721,844;  485,149;34777,121;85,25813
 810,26;30751,951; 1912,149;35451,363;85,98831
 810,82;28536,561; -488,851;33065,609;86,50239
 811,39;29927,068;  927,149;34341,852;86,78790
 811,95;30798,477; 1787,148;35442,094;86,20227
 812,51;29169,184;  -78,852;33841,336;86,22604
 813,08;28953,592;  -11,852;33532,578;86,34949
 813,64;28744,500;   10,148;32919,820;87,31279
 814,21;30086,109; 1972,148;34504,063;86,41963
 814,77;31599,416; 3352,147;36078,305;86,31404
 815,33;28972,824;  189,147;33032,547;87,63915
 815,90;28856,832;  160,147;32757,789;88,03301
 816,46;29022,842;  351,147;33162,031;87,38471
 817,03;29254,350;  222,147;33386,273;87,54098
 817,59;30408,957; 1274,146;34713,516;87,12727
 818,15;30254,064; 1287,146;35082,758;85,71207
 818,72;29762,273;  750,146;34705,000;85,44324
 819,28;28823,582;  268,146;33751,242;85,28314
 819,84;29890,289; 1659,146;34825,484;85,11987
 820,41;27682,598;  -88,855;32499,729;85,21835
 820,97;28649,906;  776,145;32783,973;87,08420
 821,53;28270,613; -146,855;32415,213;87,27169
 822,10;29685,822;  976,145;34066,457;86,76158
 822,66;28930,430;  330,144;33427,699;86,41208
 823,22;27694,338; -197,856;31954,941;86,74889
 823,79;30164,447; 2562,144;34873,184;85,42685
 824,35;27287,555;  -72,856;31755,426;85,96258
 824,91;26867,063; -137,856;31284,668;85,94128
 825,48;27713,971; 1003,143;32283,910;85,39058
 826,04;27540,279;  949,143;31507,152;87,01855
 826,60;27125,387;  357,143;31032,395;87,26332
 827,17;27459,695;  552,143;31071,637;88,16513
 827,73;26830,004; -452,857;30206,881;88,98596
 828,29;27624,611; -171,858;31222,123;88,54076
 828,85;28306,318;  207,142;32176,365;87,89446
 829,42;29247,428; 1679,142;33882,605;85,60659
 829,98;28352,236;  958,142;32906,848;85,74399
 830,54;27852,344;  972,141;32456,092;85,37748
 831,11;26492,252;  -95,859;31538,334;84,04865
 831,67;26635,359; -165,859;31383,576;84,94992
 832,23;27067,967;  -55,859;31762,818;85,24498
 832,79;27384,076;   33,141;32259,063;84,87247
 833,36;28110,484;  972,140;33105,305;84,45587
 833,92;26560,293;   -5,860;30838,547;86,12956
 834,48;26501,400;  319,140;30895,789;85,62829
 835,04;25650,107;  -93,860;29765,031;86,21877
 835,60;26485,516;  679,140;30495,273;86,55172
 836,17;26567,225;  498,139;30852,516;85,88246
 836,73;25846,533; -322,861;29595,758;87,46859
 837,29;25727,941; -127,861;29528,000;87,18615
 837,85;26662,748;  753,139;30225,244;87,91231
 838,42;25438,357; -429,861;29038,486;87,78306
 838,98;25833,766; -372,862;29292,729;88,34015
 839,54;26160,572; -292,862;30042,971;87,20194
 840,10;27204,182;  542,138;30921,213;87,76450
 840,66;26464,289;  429,138;30053,455;87,88439
 841,23;26664,098;  523,137;30632,697;86,81947
 841,79;26727,105;  560,137;30207,939;88,25939
 842,35;27513,713; 1218,137;31673,182;86,34227
 842,91;25910,322;  175,137;29914,426;86,53598
 843,47;26607,330;  267,137;30446,668;87,27834
 844,03;25618,037; -255,864;29425,910;87,17101
 844,60;25480,746; -139,864;29604,152;86,13702
 845,16;24937,555; -538,864;28730,395;87,04156
 845,72;25172,463;   30,136;29377,637;85,67110
 846,28;24963,871; -217,864;29373,879;85,09717
 846,84;25205,277;   94,135;29399,121;85,68898
 847,40;26068,586;  662,135;30286,365;85,76240
 847,96;25515,195;  -70,865;29307,607;87,09119
 848,53;25491,203;  -74,865;29491,850;86,46909
 849,09;24940,410; -152,865;28802,092;86,66314
 849,65;25305,818;  527,134;29500,334;85,52277
 850,21;25008,928;  227,134;29220,576;85,47379
 850,77;25107,234;  207,134;29170,818;85,97007
 851,33;25703,443;  575,134;29489,061;86,90729
 851,89;27269,650; 2170,134;31082,303;86,81298
 852,45;24750,459; -131,867;28971,547;85,49624
 853,01;25168,768;  274,133;29033,789;86,56096
 853,57;25262,576;  264,133;29057,031;86,82156
 854,14;24558,984; -453,867;28588,273;86,12606
 854,70;25008,291; -104,868;28995,516;86,29838
 855,26;25229,299;  120,132;29491,758;85,48783
 855,82;25125,309;  -32,868;29153,000;86,19986
 856,38;25755,217;  314,132;30155,242;85,25516
 856,94;26297,123;  739,132;30682,484;85,35447
 857,50;26107,932;  162,131;30820,729;84,62814
 858,06;25684,141; -425,869;30486,971;84,46332
 858,62;25974,449;  -85,869;30593,213;84,94491
 859,18;26504,656;  591,131;31064,455;85,03675
 859,74;26113,465;  144,130;30092,697;86,71311
 860,30;25921,473;  287,130;30219,939;85,63961
 860,86;25693,881;  -56,870;29725,182;86,46399
 861,42;25626,789; -430,870;29786,424;86,23426
 861,98;26419,598;  382,130;30621,666;86,10406
 862,54;25456,305; -349,871;29693,910;85,89523
 863,10;26216,213;  604,129;30046,152;86,99159
 863,66;25353,820; -167,871;29482,395;86,07576
 864,22;26325,729;  709,129;30463,637;86,09317
 864,78;25849,238;   15,129;30166,879;85,68030
 865,34;25869,545;  -70,872;29919,121;86,49691
 865,90;26376,754;  358,128;30517,363;86,27084
 866,46;26333,762;  262,128;30451,605;86,36000
 867,02;28082,170; 2357,128;32360,850;85,73950
 867,58;25105,578; -171,872;29462,092;85,29892
 868,14;26294,586; 1469,127;30956,334;84,19061
 868,70;25768,795;  961,127;29985,576;85,47162
 869,26;25635,102;  767,127;30078,818;84,83978
 869,82;24776,711; -190,873;29064,061;85,34487
 870,38;24245,018; -555,874;28712,303;84,73672
 870,94;25755,627; 1293,126;30579,545;83,52848
 871,50;23864,234; -478,874;27782,787;86,13474
 872,06;23991,043; -305,874;28041,031;85,71277
 872,62;24269,951; -218,874;28200,273;86,17016
 873,18;24480,760;  -99,875;28718,516;85,29496
 873,74;25545,268; 1005,125;30007,758;84,61350
 874,29;24769,074;  601,125;28986,000;85,14376
 874,85;23590,975;  -90,875;27635,000;85,41426
 875,41;23555,176;    1,125;27868,000;84,52347
 875,97;23974,975;  342,125;28347,000;84,38834
 876,53;24650,975;  699,125;28932,000;84,83674
 877,09;24791,775;  515,125;28667,000;86,23458
 877,65;25392,475; 1365,125;29459,000;85,52522
 878,21;24379,574;  235,125;28262,000;86,14749
 878,77;24209,275;  229,125;28271,000;85,51550
 879,33;24412,375;  332,125;27876,000;87,42506
 879,88;24345,176;    6,125;28063,000;86,74897
 880,44;25031,176;  211,125;28671,000;87,21068
 881,00;24946,975; -155,875;29223,000;85,44524
 881,56;24908,875;  -64,875;29407,000;84,73757
 882,12;25855,676; 1384,125;30170,000;85,01236
 882,68;24643,975;  309,125;28861,000;85,23030
 883,24;25059,074;  738,125;29355,000;84,98814
 883,79;26025,275; 1468,125;30017,000;86,01793
 884,35;26045,375; 1002,125;30011,000;86,32961
 884,91;24852,275; -395,875;28843,000;86,35131
 885,47;25725,074;  641,125;29940,000;85,61404
 886,03;25238,574;  587,125;29381,000;85,61352
 886,59;23989,074;  -43,875;27912,000;85,96744
 887,14;24789,775;  989,125;28975,000;85,04523
 887,70;23412,475; -543,875;27207,000;86,32647
 888,26;25630,676; 1055,125;29378,000;86,76927
 888,82;25312,574;  330,125;29176,000;86,60666
 889,38;26116,375;  910,125;29904,000;86,93647
 889,93;25623,875;  299,125;29031,000;88,14165
 890,49;25244,176; -431,875;28673,000;88,21907
 891,05;25532,875; -221,875;28983,000;88,18648
 891,61;26512,475;  293,125;30128,000;87,88155
 892,17;26935,975;  573,125;31014,000;86,60346
 892,72;26020,875; -249,875;30579,000;85,21475
 893,28;26141,975;  192,125;31024,000;84,16566
 893,84;25219,676; -438,875;29891,000;84,59827
 894,40;26137,676;  619,125;30278,000;86,04018
 894,95;25374,775; -370,875;29253,000;86,90845
 895,51;26679,775;  173,125;30235,000;88,17364
 896,07;27172,176;   32,125;31120,000;87,30108
 896,63;27352,176; -372,875;31597,000;86,72242
 897,18;28060,375;  422,125;32795,000;85,37472
 897,74;27655,375;  237,125;32422,000;85,18986
 898,30;26699,176; -402,875;30965,000;86,40066
 898,85;27189,775;  304,125;31188,000;87,05401
 899,41;27811,074;  816,125;31676,000;87,47589
 899,97;26817,475; -432,875;30729,000;87,44772
 900,53;27717,176;  367,125;31441,000;88,01622
 901,08;27397,975; -352,875;30972,000;88,59046
 901,64;28513,475;  630,125;32192,000;88,34504
 902,20;27802,176;  -43,875;31718,000;87,67131
 902,75;27752,375;  214,125;31646,000;87,61250
 903,31;27212,275;  -71,875;31252,000;87,10337
 903,87;26957,775; -149,875;31056,000;86,86714
 904,42;27743,975;  697,125;31628,000;87,44289
 904,98;27657,574;  468,125;31871,000;86,58268
 905,54;27745,875;  237,125;31887,000;86,91583
 906,09;27652,475;  148,125;32106,000;86,06439
 906,65;26832,775; -422,875;31466,000;85,47072
 907,21;27422,775;  501,125;31966,000;85,56096
 907,76;26457,475; -159,875;31259,000;84,71770
 908,32;26504,074;   79,125;30805,000;86,00227
 908,88;26237,775;  -29,875;30655,000;85,60455
 909,43;27286,975;  947,125;31667,000;85,74205
 909,99;26295,176;  217,125;30637,000;85,72701
 910,54;25969,176;  266,125;30119,000;86,09908
 911,10;26334,975; 1234,125;30452,000;85,90922
 911,66;26143,074; 1881,125;30385,000;85,11807
 912,21;24404,676;  402,125;28563,000;85,23368
 912,77;23591,975;  -52,875;27714,000;85,15488
 913,33;24670,475;  923,125;28771,000;85,27527
 913,88;23896,176;  321,125;27914,000;85,43891
 914,44;23114,375; -412,875;27012,000;85,78799
 914,99;23358,775; -102,875;27505,000;84,98173
 915,55;23894,775;  382,125;27603,000;86,37728
 916,10;23761,574;  286,125;27489,000;86,29768
 916,66;24105,975;  591,125;28145,000;85,34135
 917,22;23054,676; -127,875;26804,000;86,07849
 917,77;22667,875; -576,875;26700,000;85,21779
 918,33;23962,074;  977,125;27981,000;85,11723
 918,88;23000,574;  373,125;27242,000;84,21435
 919,44;22395,074;  200,125;26330,000;84,94089
 919,99;22704,775;  500,125;26610,000;85,04311
 920,55;23253,676; 1046,125;26988,000;85,60503
 921,10;22444,975;   55,125;26490,000;84,69815
 921,66;23056,676;  479,125;26959,000;85,26306
 922,21;23049,875;  142,125;26787,000;85,97432
 922,77;23607,574;  608,125;27227,000;86,40278
 923,32;25134,975; 1913,125;29024,000;85,65511
 923,88;24306,875; 1020,125;28447,000;84,90486
 924,43;23806,074;  480,125;28083,000;84,50551
 924,99;23777,574;  409,125;28069,000;84,48501
 925,54;23359,975;    6,125;27521,000;84,87718
 926,10;22845,074; -388,875;26958,000;84,96016
 926,65;23432,574;  976,125;27225,000;85,55204
 927,21;22777,074; 1062,125;26937,000;83,92291
 927,76;21583,775;  495,125;25446,000;84,52068
 928,32;19852,574; -510,875;23538,000;84,67527
 928,87;20239,775;  270,125;23935,000;84,38519
 929,43;20268,875;  266,125;23808,000;84,96668
 929,98;20143,475;  -70,875;23374,000;86,22076
 930,54;20559,676;   58,125;23995,000;85,64840
 931,09;20205,275; -202,875;23657,000;85,53335
 931,65;20571,574;  255,125;24181,000;84,91413
 932,20;20678,475;  581,125;24008,000;85,78758
 932,76;20407,475;  539,125;23781,000;85,48514
 933,31;20601,676;  827,125;24039,000;85,19153
 933,86;19802,875;  395,125;23502,000;83,99124
 934,42;19077,176;  -99,875;22644,000;84,31743
 934,97;18678,975;  -72,875;21842,000;85,56677
 935,53;18451,275;  270,125;21672,000;84,95120
 936,08;17635,975;   78,125;20735,000;84,99761
 936,63;16639,676; -143,875;19351,000;86,09212
 937,19;17536,375; 1148,125;20338,000;85,40050
 937,74;16222,675;  142,125;19029,000;85,14140
 938,30;16183,375;  543,125;18522,000;86,99237
 938,85;15145,975; -130,875;17335,000;87,46684
 939,40;15856,075; 1008,125;18355,000;85,59438
 939,96;14903,475;  500,125;17415,000;85,15197
 940,51;13934,975;  245,125;16380,000;84,84633
 941,06;14283,475;  824,125;16545,000;85,61451
 941,62;13362,675;  533,125;15969,000;83,11514
 942,17;13261,675;  876,125;15599,000;84,12453
 942,73;14184,475; 2028,125;16303,000;85,15906
 943,28;11849,375; -276,875;13922,000;85,40289
 943,83;12383,075;  358,125;14520,000;84,91072
 944,39;12075,375;  -32,875;14320,000;84,36115
 944,94;12657,975;  354,125;14767,000;85,36707
 945,49;14692,475; 2352,125;16813,000;85,33612
 946,05;11981,575; -449,875;14001,000;86,02559
 946,60;13151,875;  671,125;15174,000;86,05707
 947,15;12182,075; -359,875;14346,000;85,28530
 947,70;12924,575;  289,125;15501,000;83,06307
 948,26;12928,575;  158,125;15408,000;83,74134
 948,81;12674,475; -144,875;15098,000;84,10060
 949,36;12772,475;  -61,875;15213,000;84,02262
 949,92;13315,475;  712,125;15573,000;84,80893
 950,47;13381,875;  335,125;15450,000;86,31729
 951,02;13507,175;  409,125;15882,000;84,65169
 951,57;14834,775; 1198,125;17229,000;85,06492
 952,13;15036,475; 1147,125;17314,000;85,91240
 952,68;15175,775;  824,125;18100,000;83,07336
 953,23;16898,574; 1760,125;19497,000;85,35015
 953,79;16116,575;  613,125;18657,000;85,92085
 954,34;15946,075;  277,125;18712,000;84,99624
 954,89;15602,175;  -91,875;18293,000;85,36392
 955,44;15779,675;  174,125;18768,000;83,92844
 955,99;15981,975;  550,125;18804,000;84,54013
 956,55;15705,875;  275,125;18928,000;82,72585
 957,10;15549,175;   85,125;18450,000;84,20449
 957,65;15608,375;  242,125;18478,000;84,26385
 958,20;15741,975;  357,125;18502,000;84,78895
 958,76;16216,275;  769,125;18978,000;84,83308
 959,31;16146,375;  712,125;18884,000;84,93482
 959,86;15265,775; -360,875;17975,000;85,22446
 960,41;15748,475;   41,125;18269,000;86,17214
 960,96;19519,775; 3647,125;22371,000;84,77225
 961,52;15825,275; -248,875;18711,000;84,77983
 962,07;16928,676;  730,125;19802,000;84,93423
 962,62;16818,975;  664,125;19559,000;85,49858
 963,17;16432,074;  403,125;19440,000;84,19948
 963,72;15696,075; -325,875;18495,000;85,12861
 964,27;16386,176;  452,125;19339,000;84,36573
 964,83;15444,775; -462,875;18421,000;84,23933
 965,38;15956,575;  -81,875;18795,000;84,96348
 965,93;16574,475;  354,125;19232,000;85,92254
 966,48;16638,475;  261,125;19335,000;85,86273
 967,03;17472,775; 1076,125;20411,000;84,80350
 967,58;17069,475;  719,125;20062,000;84,52906
 968,13;16685,475;  551,125;19527,000;85,02559
 968,69;18413,275; 2483,125;20862,000;86,67642
 969,24;15779,075; -104,875;18485,000;85,44409
 969,79;15421,775; -435,875;18289,000;84,68762
 970,34;15912,675;   54,125;18577,000;85,61603
 970,89;16707,275;  640,125;19419,000;85,55971
 971,44;16207,975;   50,125;19181,000;84,45954
 971,99;17433,574; 1290,125;20402,000;84,46816
 972,54;16303,575;  468,125;19220,000;84,44729
 973,09;15246,375; -476,875;17908,000;85,52275
 973,64;15470,275;  -27,875;18223,000;84,91730
 974,20;15908,975;  515,125;18804,000;84,17057
 974,75;17061,775; 1631,125;19883,000;84,54282
 975,30;15877,175;  388,125;18812,000;84,07053
 975,85;21305,375; 5804,125;24210,000;84,21903
 976,40;15941,975;  396,125;18579,000;85,49720
 976,95;15470,475;   -5,875;18338,000;84,36794
 977,50;16001,075;  836,125;18563,000;85,54779
 978,05;15987,675;  722,125;18384,000;86,43222
 978,60;14695,275; -411,875;17161,000;85,96858
 979,15;16587,375; 1598,125;19195,000;85,18132
 979,70;14907,375;  -78,875;17553,000;84,99521
 980,25;14772,175; -197,875;17511,000;84,53417
 980,80;14997,075; -108,875;17922,000;83,77824
 981,35;15274,175;  -43,875;17844,000;85,63370
 981,90;15179,275;  -72,875;18021,000;84,29455
 982,45;16514,574; 1261,125;19140,000;85,31549
 983,00;16366,975; 1295,125;18729,000;86,45152
 983,55;15435,975;  534,125;17731,000;86,65440
 984,10;15050,675;  124,125;17552,000;85,64756
 984,65;15395,875;  340,125;17716,000;86,64744
 985,20;15786,175;  793,125;18106,000;86,60058
 985,75;15783,275;  818,125;18090,000;86,64462
 986,30;14776,575;  155,125;17059,000;86,49762
 986,85;14965,975;  484,125;17468,000;85,26823
 987,40;15032,275;  736,125;17660,000;84,47327
 987,95;14140,775;   75,125;16813,000;84,03486
 988,50;14124,375;  359,125;16711,000;84,18148
 989,05;15048,275; 1114,125;17505,000;85,01163
 989,60;14617,075;  580,125;17078,000;85,08338
 990,15;14551,475;  718,125;16984,000;85,04522
 990,70;15190,575; 1242,125;17528,000;85,64753
 991,25;13999,075;  354,125;16367,000;85,21237
 991,79;13264,875; -184,875;15618,000;85,10951
 992,34;14580,075; 1190,125;16853,000;85,48846
 992,89;16906,676; 3645,125;18818,000;87,40302
 993,44;13496,975;  433,125;15734,000;85,37976
 993,99;13052,075;  -66,875;15189,000;85,99277
 994,54;13407,475;  338,125;15465,000;86,39821
 995,09;13149,375;  107,125;15102,000;86,97805
 995,64;13735,475;  925,125;15893,000;85,58563
 996,19;12494,275; -258,875;14631,000;85,64981
 996,74;13715,675; 1123,125;15610,000;86,92385
 997,28;12359,375;   55,125;14646,000;84,32839
 997,83;11853,575; -285,875;13993,000;85,01685
 998,38;12069,475;   19,125;14144,000;85,31296
 998,93;12238,775;  129,125;14089,000;86,74612
 999,48;12263,775;   54,125;14201,000;86,30634
1000,03;14478,975; 2080,125;16557,000;85,64590
1000,58;12521,775;   91,125;14632,000;85,48764
1001,12;13680,175; 1074,125;15858,000;85,26891
1001,67;12888,275;  427,125;15076,000;85,06558
1002,22;13256,275; 1165,125;15584,000;83,85641
1002,77;12958,075; 1116,125;15038,000;85,06002
1003,32;11739,775;  134,125;13986,000;83,78397
1003,86;12595,975; 1301,125;14605,000;84,89895
1004,41;11756,075;  504,125;14078,000;82,89416
1004,96;11333,375;   87,125;13674,000;82,77290
1005,51;11498,475;  378,125;13855,000;82,51430
1006,06;12550,775; 1755,125;14831,000;82,56159
1006,60;10695,575;   11,125;12596,000;84,89914
1007,15;11427,375; 1146,125;13251,000;84,93479
1007,70;10948,975;  864,125;12859,000;84,07632
1008,25; 9988,975;  307,125;11889,000;83,59484
1008,80; 9240,075; -355,875;11107,000;83,71329
1009,34;10438,075; 1102,125;12240,000;83,82165
1009,89;10059,475;  691,125;11969,000;83,06839
1010,44; 9653,175;  140,125;11525,000;83,55867
1010,99; 9989,175;  498,125;11740,000;84,42586
1011,53; 9423,775; -267,875;11259,000;84,07873
1012,08; 9560,275; -304,875;11538,000;83,30030
1012,63;10538,175;  262,125;12238,000;85,80625
1013,18;10683,575;  392,125;12488,000;85,08231
1013,72;11279,675;  527,125;13362,000;83,77604
1014,27;11208,475;   18,125;13279,000;84,38621
1014,82;12322,275;  918,125;14535,000;83,75013
1015,36;11778,275;  205,125;14165,000;82,90297
1015,91;11856,275;  288,125;14038,000;84,13277
1016,46;11914,375;  372,125;14323,000;82,73495
1017,01;11434,575;  -50,875;13631,000;83,94646
1017,55;10976,675; -228,875;13317,000;82,72297
1018,10;11385,675;  531,125;13502,000;83,68402
1018,65;11070,975;  552,125;13321,000;82,37883
1019,19;11213,075;  772,125;13131,000;84,48140
1019,74;11020,975;  791,125;12927,000;84,29429
1020,29;10946,975;  564,125;12842,000;84,56553
1020,83;10754,875;  518,125;12787,000;83,43675
1021,38;11019,675;  746,125;12944,000;84,22409
1021,93;10454,475;  240,125;12179,000;85,55538
1022,47;10403,075;  156,125;12149,000;85,44198
1023,02; 9717,875; -263,875;11339,000;86,02825
1023,56;10902,875; 1195,125;12673,000;84,57794
1024,11; 9212,675; -380,875;10892,000;85,10296
1024,66; 9933,175;  548,125;11409,000;86,41154
1025,20; 8935,575; -355,875;10524,000;85,40034
1025,75; 9309,575;  152,125;10783,000;86,14014
1026,30; 9486,675;  464,125;11002,000;85,62020
1026,84; 8688,675; -189,875;10380,000;83,99863
1027,39; 9507,375;  770,125;10916,000;86,11628
1027,93; 8556,375;  -97,875;10062,000;85,18067
1028,48; 8849,275;  498,125;10367,000;84,62110
1029,03; 9155,875; 1032,125;10769,000;83,43283
1029,57; 8175,975;  143,125; 9728,000;83,80756
1030,12; 7982,075;  103,125; 9618,000;82,80666
1030,66; 8044,375;  301,125; 9585,000;83,40537
1031,21; 8068,975;  455,125; 9825,000;81,25882
1031,75; 9925,475; 2320,125;11678,000;81,27219
1032,30; 8022,575;  516,125; 9360,000;84,87739
1032,84; 7924,775;  702,125; 9347,000;83,54834
1033,39; 7296,275;  105,125; 8572,000;84,93275
1033,94; 6707,275;  -35,875; 8086,000;83,02455
1034,48; 7839,175; 1006,125; 8973,000;85,76826
1035,03; 7493,375;  802,125; 8680,000;84,93725
1035,57; 6643,975;  127,125; 7717,000;85,86242
1036,12; 6303,975; -288,875; 7326,000;86,57857
1036,66; 7150,275;  584,125; 8141,000;86,88975
1037,21; 6308,475; -276,875; 7354,000;86,29875
1037,75; 7903,875; 1455,125; 9104,000;84,30978
1038,30; 6985,275;  492,125; 8004,000;86,43847
1038,84; 6444,075;   54,125; 7547,000;85,28035
1039,39; 6000,575; -293,875; 7124,000;84,85517
1039,93; 6779,475;  586,125; 7699,000;87,07239
1040,48; 6481,575;  368,125; 7616,000;84,34817
1041,02; 6781,475;  790,125; 7846,000;84,91293
1041,57; 6612,575;  557,125; 7677,000;85,04995
1042,11; 6990,575; 1125,125; 7874,000;86,91004
1042,66; 6289,475;  337,125; 7207,000;86,64423
1043,20; 5643,375; -311,875; 6542,000;86,88880
1043,74; 6405,975;  523,125; 7287,000;86,97455
1044,29; 6878,975; 1221,125; 7850,000;85,35159
1044,83; 6062,375;  649,125; 6917,000;86,36500
1045,38; 5464,975;  173,125; 6445,000;84,37429
1045,92; 4869,675; -215,875; 5729,000;85,54511
1046,47; 5223,575;  172,125; 6089,000;85,37362
1047,01; 5778,275;  771,125; 6611,000;85,74070
1047,55; 5418,875;  411,125; 6088,000;88,21315
1048,10; 4724,575; -218,875; 5492,000;86,56205
1048,64; 5481,075;  562,125; 6190,000;87,40333
1049,19; 5209,275;  456,125; 6084,000;84,45728
1049,73; 5226,875;  496,125; 6081,000;84,70646
1050,27; 4767,375;  232,125; 5526,000;85,66976
1050,82; 4764,975;  245,125; 5526,000;85,58904
1051,36; 4420,075;  201,125; 5235,000;83,81118
1051,91; 4893,375;  626,125; 5620,000;85,44968
1052,45; 4750,875;  546,125; 5424,000;86,20045
1052,99; 4283,275;   96,125; 5029,000;84,88255
1053,54; 4496,875;  283,125; 5345,000;83,24485
1054,08; 3884,375; -202,875; 4553,000;85,94107
1054,62; 4599,975;  579,125; 5502,000;81,67687
1055,17; 4732,975;  769,125; 5596,000;82,12042
1055,71; 4314,175;  526,125; 5214,000;80,80526
1056,25; 7060,075; 3304,125; 7942,000;80,98429
1056,80; 4466,375;  821,125; 5204,000;83,17029
1057,34; 3257,775; -197,875; 4029,000;81,75425
1057,88; 3645,475;  133,125; 4288,000;84,53564
1058,43; 4204,775;  789,125; 4871,000;83,67845
1058,97; 3949,675;  586,125; 4601,000;83,77720
1059,51; 4118,175;  667,125; 4678,000;86,04232
1060,06; 4735,175; 1361,125; 5398,000;83,58074
1060,60; 3720,375;  261,125; 4366,000;84,27175
1061,14; 3616,575;  231,125; 4183,000;85,66693
1061,68; 3700,875;  377,125; 4474,000;81,12891
1062,23; 5927,675; 2726,125; 6631,000;81,98853
1062,77; 3688,675;  533,125; 4297,000;83,83780
1063,31; 3572,175;  525,125; 4393,000;78,77840
1063,85; 3995,175;  930,125; 4665,000;82,06567
1064,40; 3081,475;   55,125; 3725,000;82,46466
1064,94; 3156,775;  289,125; 3761,000;82,59658
1065,48; 3257,475;  325,125; 3926,000;81,43438
1066,02; 3802,075; 1011,125; 4362,000;83,29018
1066,57; 2976,675;  255,125; 3484,000;84,28787
1067,11; 2950,075;  234,125; 3494,000;83,31454
1067,65; 3231,375;  543,125; 3828,000;81,83721
1068,19; 3200,875;  507,125; 3711,000;84,07787
1068,74; 2790,375;  220,125; 3271,000;84,24632
1069,28; 4594,375; 1932,125; 5032,000;85,88250
1069,82; 3091,775;  581,125; 3577,000;83,80356
1070,36; 2615,975;   64,125; 3064,000;85,06521
1070,90; 6469,075; 3832,125; 6951,000;84,54812
1071,45; 2824,475;  314,125; 3193,000;87,19900
1071,99; 3078,575;  596,125; 3414,000;88,09652
1072,53; 2859,275;  419,125; 3308,000;84,46713
1073,07; 2901,975;  476,125; 3262,000;87,07677
1073,61; 2635,675;  224,125; 2999,000;86,90662
1074,15; 2939,275;  611,125; 3446,000;82,12531
1074,70; 2998,675;  770,125; 3473,000;82,45110
1075,24; 2591,275;  460,125; 3000,000;83,90767
1075,78; 2326,675;   68,125; 2781,000;83,25301
1076,32; 2765,975;  486,125; 3211,000;83,66806
1076,86; 2501,975;  228,125; 2995,000;82,18116
1077,40; 3637,675; 1387,125; 4052,000;84,45237
1077,94; 3293,375; 1000,125; 3728,000;84,06727
1078,49; 2091,075;   -9,875; 2554,000;81,94432
1079,03; 2322,775;  295,125; 2607,000;87,70586
1079,57; 2852,275;  800,125; 3345,000;80,63853
1080,11; 3086,975; 1024,125; 3452,000;84,96525
1080,65; 3238,675; 1170,125; 3630,000;84,09167
1081,19; 4553,975; 2483,125; 4823,000;88,50260
1081,73; 2283,675;  378,125; 2617,000;85,11194
1082,27; 2177,775;  216,125; 2532,000;84,70448
1082,81; 1899,875;  -11,875; 2140,000;88,84113
1083,35; 2344,275;  279,125; 2635,000;87,65957
1083,89; 2443,975;  464,125; 2861,000;82,60131
1084,44; 3904,575; 1871,125; 4188,000;87,76693
1084,98; 2477,275;  486,125; 2748,000;88,03094
1085,52; 2045,675;  272,125; 2370,000;84,54031
1086,06; 1671,575; -143,875; 1949,000;86,74431
1086,60; 2038,875;  342,125; 2324,000;85,61337
1087,14; 1704,175;   -3,875; 2040,000;83,56920
1087,68; 2360,375;  627,125; 2620,000;86,97234
1088,22; 2083,475;  356,125; 2573,000;77,91825
1088,76; 3018,475; 1404,125; 3364,000;82,37005
1089,30; 1562,575;  -76,875; 1982,000;79,62844
1089,84; 1960,575;  418,125; 2312,000;81,44413
1090,38; 3127,875; 1506,125; 3498,000;81,41826
1090,92; 1791,075;  332,125; 2136,000;80,87866
1091,46; 2138,675;  672,125; 2518,000;79,45013
1092,00; 2193,275;  658,125; 2589,000;79,50540
1092,54; 1750,875;  301,125; 2054,000;82,70698
1093,08; 2557,475;  995,125; 2909,000;81,63282
1093,62; 1827,875;  314,125; 2178,000;81,21521
1094,16; 1320,075; -241,875; 1541,000;87,60849
1094,70; 1319,875; -164,875; 1600,000;84,12777
1095,24; 1851,975;  409,125; 2161,000;82,36033
1095,78; 1790,775;  324,125; 2030,000;85,97641
1096,32; 1624,275;  163,125; 1951,000;81,72551
1096,86; 1837,175;  529,125; 2116,000;82,42931
1097,40; 1987,475;  688,125; 2256,000;82,87331
1097,93; 3175,375; 1831,125; 3494,000;80,83891
1098,47; 2038,775;  640,125; 2359,000;81,37008
1099,01; 2301,875; 1012,125; 2505,000;86,39370
1099,55; 1894,175;  635,125; 2214,000;79,74349
1100,09; 1255,575;   38,125; 1554,000;80,31335

